timestamps,TP9,AF7,AF8,TP10,Right AUX
1757698453.751,-404.785,-57.617,-690.430,-246.094,0.000
1757698453.755,-2.930,-19.531,-71.289,-56.152,0.000
1757698453.759,399.414,-7.324,344.727,198.730,0.000
1757698453.763,-50.781,-44.922,-188.965,3.418,0.000
1757698453.767,-425.293,-52.734,-562.012,-229.004,0.000
1757698453.771,-165.039,-30.273,-334.473,-137.695,0.000
1757698453.775,370.605,-9.277,192.871,164.551,0.000
1757698453.779,128.418,-41.992,-262.695,104.004,0.000
1757698453.783,-375.977,-44.922,-585.938,-196.777,0.000
1757698453.786,-278.809,-25.391,-346.680,-197.266,0.000
1757698453.790,270.020,-9.766,184.570,100.098,0.000
1757698453.794,289.062,-14.160,273.438,166.016,0.000
1757698453.798,-275.391,-41.016,-338.867,-127.441,0.000
1757698453.802,-361.328,-37.598,-497.559,-221.680,0.000
1757698453.806,128.906,-14.160,-39.062,22.461,0.000
1757698453.810,389.160,-14.648,266.113,210.938,0.000
1757698453.814,-149.902,-43.457,-283.691,-53.223,0.000
1757698453.818,-421.875,-52.246,-588.867,-238.770,0.000
1757698453.822,-54.199,-36.621,-320.801,-58.594,0.000
1757698453.825,400.879,-4.395,159.668,212.891,0.000
1757698453.829,10.254,-20.508,-34.668,32.227,0.000
1757698453.833,-393.555,-44.922,-511.230,-223.633,0.000
1757698453.837,-201.172,-35.156,-458.984,-173.340,0.000
1757698453.841,328.613,-5.859,208.496,115.723,0.000
1757698453.845,159.668,-22.949,180.176,85.449,0.000
1757698453.849,-369.141,-58.594,-435.547,-202.148,0.000
1757698453.853,-321.777,-48.340,-457.520,-216.797,0.000
1757698453.857,213.867,-3.906,219.727,64.453,0.000
1757698453.861,319.824,-9.277,302.246,174.805,0.000
1757698453.865,-247.070,-57.129,-408.691,-112.793,0.000
1757698453.868,-393.066,-58.594,-632.324,-232.422,0.000
1757698453.872,70.801,-8.301,-73.242,-15.625,0.000
1757698453.876,397.461,14.160,385.254,199.707,0.000
1757698453.880,-108.398,-37.109,-242.188,-30.273,0.000
1757698453.884,-426.758,-51.758,-699.707,-230.469,0.000
1757698453.888,-106.934,-4.883,-210.938,-96.680,0.000
1757698453.892,393.066,12.695,355.957,186.523,0.000
1757698453.896,64.453,-22.949,-81.543,61.523,0.000
1757698453.900,-397.949,-45.898,-571.289,-203.613,0.000
1757698453.904,-239.258,-30.762,-433.105,-158.691,0.000
1757698453.908,326.172,12.207,257.812,143.066,0.000
1757698453.911,247.070,-11.719,103.516,157.715,0.000
1757698453.915,-306.641,-41.504,-526.855,-142.090,0.000
1757698453.919,-325.195,-21.484,-479.980,-202.148,0.000
1757698453.923,195.312,9.277,109.863,64.941,0.000
1757698453.927,374.512,-3.418,244.141,206.543,0.000
1757698453.931,-187.988,-40.039,-321.777,-83.496,0.000
1757698453.935,-393.066,-35.645,-521.973,-231.445,0.000
1757698453.939,20.508,-8.301,-105.469,-27.344,0.000
1757698453.943,408.203,-2.441,285.645,222.168,0.000
1757698453.947,-43.457,-32.715,-133.789,10.254,0.000
1757698453.951,-410.645,-43.457,-518.066,-222.656,0.000
1757698453.954,-148.926,-27.344,-313.965,-112.305,0.000
1757698453.958,373.535,-10.742,167.480,185.059,0.000
1757698453.962,120.605,-26.367,-70.312,95.215,0.000
1757698453.966,-371.582,-34.668,-463.379,-196.777,0.000
1757698453.970,-267.090,-30.762,-488.281,-185.547,0.000
1757698453.974,288.086,-19.531,-106.445,114.258,0.000
1757698453.978,293.945,-8.789,222.168,155.273,0.000
1757698453.982,-268.555,-30.762,-310.059,-145.996,0.000
1757698453.986,-354.980,-41.016,-569.824,-221.191,0.000
1757698453.990,135.254,-9.766,0.000,24.414,0.000
1757698453.993,388.184,-2.930,312.500,195.801,0.000
1757698453.997,-154.297,-42.969,-333.008,-68.848,0.000
1757698454.001,-413.574,-47.852,-655.762,-243.652,0.000
1757698454.005,-41.016,-16.113,-211.914,-76.660,0.000
1757698454.009,389.648,7.812,333.984,190.430,0.000
1757698454.013,-16.113,-18.555,-58.594,15.137,0.000
1757698454.017,-412.109,-55.176,-673.340,-228.516,0.000
1757698454.021,-191.895,-32.715,-419.922,-148.438,0.000
1757698454.025,347.168,10.254,323.730,149.902,0.000
1757698454.029,162.598,-27.832,108.398,105.957,0.000
1757698454.033,-354.492,-62.012,-537.109,-184.082,0.000
1757698454.036,-295.410,-33.691,-441.895,-200.195,0.000
1757698454.040,242.676,-2.441,250.977,81.055,0.000
1757698454.044,318.848,-16.602,262.695,174.805,0.000
1757698454.048,-246.582,-45.410,-358.398,-118.652,0.000
1757698454.052,-383.301,-48.828,-586.426,-231.934,0.000
1757698454.056,91.797,-14.648,-49.805,-11.230,0.000
1757698454.060,405.762,-3.418,341.797,200.684,0.000
1757698454.064,-118.652,-62.988,-452.148,-32.227,0.000
1757698454.068,-424.316,-49.316,-632.324,-236.328,0.000
1757698454.072,-90.820,-10.742,-133.789,-91.309,0.000
1757698454.075,389.160,-4.883,312.012,188.965,0.000
1757698454.079,36.133,-33.203,-11.719,33.691,0.000
1757698454.083,-408.203,-55.176,-494.629,-236.816,0.000
1757698454.087,-233.887,-41.992,-429.199,-159.668,0.000
1757698454.091,315.430,-11.230,178.711,138.184,0.000
1757698454.095,217.285,-25.879,186.523,124.023,0.000
1757698454.099,-319.824,-59.082,-453.613,-157.227,0.000
1757698454.103,-330.566,-50.781,-555.176,-197.754,0.000
1757698454.107,190.918,-26.855,-7.812,76.172,0.000
1757698454.111,345.703,-19.043,234.863,208.496,0.000
1757698454.115,-219.238,-35.156,-237.305,-98.145,0.000
1757698454.119,-403.809,-42.480,-519.531,-241.699,0.000
1757698454.122,21.973,-22.461,-177.246,-32.715,0.000
1757698454.126,402.832,-1.465,352.051,202.148,0.000
1757698454.130,-63.965,-26.367,-71.289,-11.719,0.000
1757698454.134,-412.598,-44.434,-540.039,-231.445,0.000
1757698454.138,-125.977,-19.531,-292.969,-113.770,0.000
1757698454.142,370.605,10.254,269.531,176.270,0.000
1757698454.146,104.004,-16.602,-24.414,77.148,0.000
1757698454.150,-368.164,-41.504,-594.727,-191.895,0.000
1757698454.154,-250.977,-21.484,-437.988,-168.457,0.000
1757698454.158,300.293,18.066,252.930,119.629,0.000
1757698454.161,271.973,5.859,287.598,158.691,0.000
1757698454.165,-288.574,-38.574,-417.480,-133.789,0.000
1757698454.169,-344.238,-43.945,-710.938,-197.754,0.000
1757698454.173,159.180,6.836,-0.488,39.062,0.000
1757698454.177,393.555,16.113,382.812,199.219,0.000
1757698454.181,-141.602,-30.762,-300.781,-62.012,0.000
1757698454.185,-397.461,-37.109,-610.352,-233.887,0.000
1757698454.189,-22.461,-0.977,-117.188,-58.594,0.000
1757698454.193,420.410,11.230,355.469,209.473,0.000
1757698454.197,6.348,-30.273,-249.512,33.203,0.000
1757698454.201,-397.461,-33.203,-625.488,-203.125,0.000
1757698454.204,-167.480,7.812,-257.324,-128.906,0.000
1757698454.208,382.812,26.855,278.809,172.363,0.000
1757698454.212,187.500,-3.906,-20.020,132.324,0.000
1757698454.216,-335.938,-23.438,-519.531,-160.156,0.000
1757698454.220,-268.555,-5.371,-378.906,-172.852,0.000
1757698454.224,274.414,17.090,207.520,116.211,0.000
1757698454.228,330.078,2.441,181.641,201.172,0.000
1757698454.232,-228.516,-25.879,-374.023,-102.539,0.000
1757698454.236,-347.656,-29.785,-485.352,-201.660,0.000
1757698454.240,128.906,-12.695,-106.934,51.270,0.000
1757698454.244,416.504,-15.137,56.641,242.676,0.000
1757698454.247,-114.746,-25.391,-291.016,-41.016,0.000
1757698454.251,-401.855,-29.297,-505.859,-244.141,0.000
1757698454.255,-65.918,-22.461,-239.258,-87.402,0.000
1757698454.259,404.297,8.301,338.379,197.754,0.000
1757698454.263,42.969,-15.137,17.090,46.387,0.000
1757698454.267,-386.719,-45.410,-488.770,-217.285,0.000
1757698454.271,-206.543,-31.738,-372.559,-157.227,0.000
1757698454.275,341.309,-1.953,250.488,145.020,0.000
1757698454.279,229.492,-25.391,123.535,136.230,0.000
1757698454.283,-317.383,-40.039,-419.434,-163.086,0.000
1757698454.286,-310.547,-37.598,-534.668,-199.219,0.000
1757698454.290,214.355,-12.207,-28.809,73.730,0.000
1757698454.294,347.656,4.883,321.777,194.824,0.000
1757698454.298,-209.473,-31.738,-279.785,-84.473,0.000
1757698454.302,-381.348,-55.176,-670.410,-218.750,0.000
1757698454.306,49.316,-22.461,-121.582,-17.578,0.000
1757698454.310,409.668,-5.371,383.301,216.309,0.000
1757698454.314,-59.570,-40.527,-124.023,0.488,0.000
1757698454.318,-397.461,-55.664,-569.336,-219.727,0.000
1757698454.322,-114.258,-31.738,-276.367,-104.492,0.000
1757698454.326,391.602,-9.766,330.078,186.523,0.000
1757698454.329,95.215,-42.480,16.602,76.660,0.000
1757698454.333,-385.742,-74.707,-565.918,-204.102,0.000
1757698454.337,-259.766,-50.781,-421.387,-178.223,0.000
1757698454.341,288.574,-5.859,272.949,122.070,0.000
1757698454.345,255.371,-33.203,165.527,155.762,0.000
1757698454.349,-289.551,-70.312,-575.684,-132.324,0.000
1757698454.353,-338.867,-35.645,-522.461,-207.031,0.000
1757698454.357,164.062,-1.465,112.305,45.410,0.000
1757698454.361,381.836,-14.160,274.902,210.938,0.000
1757698454.365,-159.668,-45.410,-337.891,-66.406,0.000
1757698454.369,-385.742,-46.387,-604.004,-230.469,0.000
1757698454.372,8.789,-22.461,-173.340,-43.945,0.000
1757698454.376,411.621,-7.324,293.945,211.914,0.000
1757698454.380,-19.043,-40.527,-213.379,17.090,0.000
1757698454.384,-397.461,-45.410,-567.871,-223.633,0.000
1757698454.388,-163.086,-14.160,-267.090,-140.137,0.000
1757698454.392,366.699,-7.812,232.422,165.527,0.000
1757698454.396,150.879,-26.367,52.246,109.375,0.000
1757698454.400,-348.145,-30.273,-442.871,-187.988,0.000
1757698454.404,-271.973,-27.344,-430.664,-196.777,0.000
1757698454.408,257.324,-13.672,131.348,90.820,0.000
1757698454.412,297.363,-14.648,269.531,167.969,0.000
1757698454.415,-265.137,-41.016,-304.199,-129.395,0.000
1757698454.419,-362.793,-44.434,-534.668,-224.609,0.000
1757698454.423,124.512,-19.043,-71.289,20.020,0.000
1757698454.427,403.320,-12.207,276.855,209.961,0.000
1757698454.431,-116.211,-37.109,-235.840,-50.293,0.000
1757698454.435,-396.973,-45.898,-586.426,-231.445,0.000
1757698454.439,-58.594,-38.574,-453.613,-68.848,0.000
1757698454.443,389.160,2.930,234.375,190.430,0.000
1757698454.447,15.137,-20.020,30.762,29.785,0.000
1757698454.451,-400.879,-50.293,-569.336,-217.773,0.000
1757698454.455,-220.215,-34.668,-397.949,-157.715,0.000
1757698454.458,319.336,-7.324,285.156,148.926,0.000
1757698454.462,191.406,-30.273,131.348,132.324,0.000
1757698454.466,-340.332,-61.523,-501.953,-174.805,0.000
1757698454.470,-315.430,-41.016,-474.609,-213.379,0.000
1757698454.474,217.773,-14.160,61.523,65.918,0.000
1757698454.478,335.938,-20.996,220.215,185.059,0.000
1757698454.482,-230.469,-58.105,-440.918,-100.586,0.000
1757698454.486,-397.949,-47.363,-610.840,-230.469,0.000
1757698454.490,44.922,4.395,-6.836,-24.414,0.000
1757698454.494,394.043,1.953,354.004,198.730,0.000
1757698454.497,-91.309,-42.969,-298.340,-30.273,0.000
1757698454.501,-419.434,-44.922,-612.793,-243.652,0.000
1757698454.505,-126.953,-21.973,-186.523,-119.141,0.000
1757698454.509,385.254,-2.930,306.152,176.270,0.000
1757698454.513,87.402,-31.738,-121.094,65.918,0.000
1757698454.517,-401.855,-55.176,-560.547,-217.285,0.000
1757698454.521,-270.508,-42.480,-406.738,-187.500,0.000
1757698454.525,296.387,-12.695,138.672,119.141,0.000
1757698454.529,254.883,-32.715,-125.977,156.250,0.000
1757698454.533,-312.012,-45.898,-539.551,-148.926,0.000
1757698454.537,-359.863,-31.738,-443.848,-220.703,0.000
1757698454.540,166.992,-6.836,68.359,36.133,0.000
1757698454.544,367.188,1.465,343.750,186.035,0.000
1757698454.548,-183.105,-31.738,-262.695,-89.355,0.000
1757698454.552,-392.578,-38.086,-532.715,-246.582,0.000
1757698454.556,10.254,-20.508,-163.086,-50.781,0.000
1757698454.560,408.691,-4.883,281.250,202.637,0.000
1757698454.564,-32.715,-28.809,-96.680,-0.488,0.000
1757698454.568,-416.504,-53.223,-575.195,-223.633,0.000
1757698454.572,-165.527,-35.645,-456.543,-122.070,0.000
1757698454.576,371.582,7.324,96.191,169.434,0.000
1757698454.580,136.230,3.418,87.891,89.844,0.000
1757698454.583,-365.723,-30.273,-464.355,-194.336,0.000
1757698454.587,-272.949,-29.785,-543.945,-187.012,0.000
1757698454.591,264.160,6.348,150.879,101.074,0.000
1757698454.595,282.715,-1.953,282.227,168.457,0.000
1757698454.599,-269.531,-36.133,-358.887,-125.488,0.000
1757698454.603,-353.027,-34.668,-545.410,-224.121,0.000
1757698454.607,136.230,4.395,20.996,17.578,0.000
1757698454.611,405.762,13.184,373.047,210.938,0.000
1757698454.615,-126.953,-39.551,-317.383,-46.387,0.000
1757698454.619,-402.344,-56.152,-788.086,-221.191,0.000
1757698454.622,-45.410,-0.977,-226.562,-65.918,0.000
1757698454.626,414.551,23.438,391.602,197.754,0.000
1757698454.630,20.020,-24.414,-123.535,34.180,0.000
1757698454.634,-401.367,-43.457,-554.688,-222.656,0.000
1757698454.638,-201.172,-23.926,-315.918,-154.785,0.000
1757698454.642,335.449,-2.930,227.539,143.066,0.000
1757698454.646,190.430,-28.320,44.922,115.234,0.000
1757698454.650,-340.820,-57.129,-496.582,-178.711,0.000
1757698454.654,-302.246,-45.410,-463.867,-206.543,0.000
1757698454.658,248.535,-5.371,188.965,83.008,0.000
1757698454.662,348.633,-22.949,166.992,197.754,0.000
1757698454.665,-225.098,-46.387,-427.246,-97.656,0.000
1757698454.669,-383.301,-25.879,-496.094,-226.074,0.000
1757698454.673,65.430,-6.348,-56.152,-6.348,0.000
1757698454.677,392.090,-15.137,309.570,212.891,0.000
1757698454.681,-105.469,-45.898,-175.293,-28.320,0.000
1757698454.685,-409.668,-47.363,-535.156,-238.770,0.000
1757698454.689,-110.352,-32.227,-253.906,-105.469,0.000
1757698454.693,368.164,-15.625,221.191,185.059,0.000
1757698454.697,52.246,-39.551,-39.551,61.523,0.000
1757698454.701,-400.391,-63.477,-540.527,-210.938,0.000
1757698454.705,-245.605,-51.270,-500.000,-171.387,0.000
1757698454.708,301.270,-20.020,69.824,127.930,0.000
1757698454.712,228.027,-21.484,147.949,141.113,0.000
1757698454.716,-316.895,-43.945,-361.816,-155.762,0.000
1757698454.720,-339.844,-48.340,-576.172,-212.402,0.000
1757698454.724,168.945,-31.250,-158.691,58.105,0.000
1757698454.728,342.773,-10.742,296.875,196.289,0.000
1757698454.732,-212.402,-42.480,-237.305,-91.797,0.000
1757698454.736,-408.691,-56.152,-614.258,-233.398,0.000
1757698454.740,-2.930,-23.926,-130.859,-56.152,0.000
1757698454.744,388.672,-8.301,368.164,181.152,0.000
1757698454.748,-54.199,-46.875,-210.938,-10.742,0.000
1757698454.751,-423.828,-58.594,-659.180,-232.910,0.000
1757698454.755,-168.945,-33.691,-386.230,-129.883,0.000
1757698454.759,353.516,-3.906,236.328,171.875,0.000
1757698454.763,120.605,-23.926,-3.418,91.797,0.000
1757698454.767,-367.188,-56.641,-666.504,-195.801,0.000
1757698454.771,-275.879,-28.320,-495.117,-176.270,0.000
1757698454.775,269.043,20.508,282.227,110.352,0.000
1757698454.779,274.414,-7.812,253.418,164.062,0.000
1757698454.783,-287.109,-49.805,-456.543,-128.906,0.000
1757698454.787,-361.816,-41.016,-534.180,-216.309,0.000
1757698454.791,134.277,-9.277,76.172,30.762,0.000
1757698454.794,385.254,-4.395,329.590,204.102,0.000
1757698454.798,-141.113,-40.039,-348.633,-57.129,0.000
1757698454.802,-390.137,-43.457,-645.996,-222.168,0.000
1757698454.806,-40.527,-15.625,-173.340,-66.895,0.000
1757698454.810,389.160,-3.906,325.195,190.918,0.000
1757698454.814,-7.812,-55.176,-345.215,32.715,0.000
1757698454.818,-421.387,-48.828,-609.863,-222.656,0.000
1757698454.822,-208.984,-19.043,-271.484,-156.250,0.000
1757698454.826,332.520,-11.230,223.145,147.461,0.000
1757698454.830,161.133,-29.297,130.371,108.398,0.000
1757698454.833,-360.840,-54.199,-414.062,-189.941,0.000
1757698454.837,-305.176,-53.223,-463.379,-205.566,0.000
1757698454.841,237.793,-20.020,85.449,91.309,0.000
1757698454.845,317.871,-13.672,259.277,185.059,0.000
1757698454.849,-252.441,-47.852,-390.137,-113.770,0.000
1757698454.853,-395.508,-44.922,-589.355,-226.074,0.000
1757698454.857,66.406,-20.020,-168.457,1.953,0.000
1757698454.861,393.555,-3.906,260.254,215.820,0.000
1757698454.865,-106.934,-20.020,-95.215,-32.227,0.000
1757698454.869,-411.621,-39.551,-591.797,-229.980,0.000
1757698454.873,-89.355,-22.949,-375.488,-84.473,0.000
1757698454.876,389.160,7.324,296.875,190.430,0.000
1757698454.880,51.270,-18.555,25.391,49.805,0.000
1757698454.884,-391.602,-51.270,-527.344,-208.496,0.000
1757698454.888,-233.398,-41.016,-396.973,-170.898,0.000
1757698454.892,318.848,-3.418,240.234,122.070,0.000
1757698454.896,230.469,-24.902,149.902,133.789,0.000
1757698454.900,-321.289,-57.129,-505.859,-159.668,0.000
1757698454.904,-325.684,-55.664,-686.035,-202.148,0.000
1757698454.908,186.523,-9.277,86.426,52.246,0.000
1757698454.912,348.145,-6.836,374.512,182.129,0.000
1757698454.915,-205.566,-54.199,-349.609,-97.168,0.000
1757698454.919,-403.809,-55.176,-554.688,-250.000,0.000
1757698454.923,19.531,-26.367,-85.938,-42.969,0.000
1757698454.927,404.297,-13.184,327.637,201.660,0.000
1757698454.931,-46.875,-46.875,-156.250,-15.137,0.000
1757698454.935,-408.203,-50.781,-562.500,-241.211,0.000
1757698454.939,-145.020,-21.484,-260.254,-135.254,0.000
1757698454.943,375.000,-2.930,298.340,160.645,0.000
1757698454.947,110.840,-37.598,-79.590,73.730,0.000
1757698454.951,-373.047,-57.617,-570.312,-204.102,0.000
1757698454.955,-269.043,-26.855,-341.797,-192.871,0.000
1757698454.958,287.109,-3.418,239.746,105.957,0.000
1757698454.962,287.109,-22.949,154.785,157.715,0.000
1757698454.966,-279.297,-43.945,-395.996,-144.043,0.000
1757698454.970,-358.887,-35.645,-462.891,-226.074,0.000
1757698454.974,137.695,-11.719,28.809,29.785,0.000
1757698454.978,381.836,-17.090,207.031,208.008,0.000
1757698454.982,-162.598,-45.898,-342.773,-69.824,0.000
1757698454.986,-420.898,-43.457,-541.016,-249.023,0.000
1757698454.990,-46.875,-29.297,-245.117,-75.684,0.000
1757698454.994,391.602,-23.926,41.992,200.195,0.000
1757698454.998,-22.949,-28.320,-176.758,12.695,0.000
1757698455.001,-427.734,-32.715,-486.328,-243.652,0.000
1757698455.005,-203.613,-34.668,-369.141,-157.227,0.000
1757698455.009,332.031,-7.812,261.230,139.648,0.000
1757698455.013,148.438,-19.531,157.227,92.285,0.000
1757698455.017,-360.352,-55.664,-499.023,-191.406,0.000
1757698455.021,-306.641,-43.457,-531.738,-206.543,0.000
1757698455.025,232.910,-6.348,100.098,79.590,0.000
1757698455.029,306.152,-16.113,210.938,177.734,0.000
1757698455.033,-250.488,-37.109,-341.309,-120.117,0.000
1757698455.037,-377.930,-43.457,-602.051,-229.980,0.000
1757698455.040,85.449,-13.672,-162.109,2.441,0.000
1757698455.044,392.090,14.160,360.352,200.684,0.000
1757698455.048,-119.629,-28.809,-134.277,-46.387,0.000
1757698455.052,-415.527,-57.617,-663.574,-235.840,0.000
1757698455.056,-91.797,-26.367,-234.863,-94.727,0.000
1757698455.060,387.695,5.859,390.137,185.059,0.000
1757698455.064,46.387,-24.414,-53.711,51.270,0.000
1757698455.068,-399.414,-52.246,-589.844,-211.914,0.000
1757698455.072,-226.562,-31.738,-376.465,-163.574,0.000
1757698455.076,307.617,-4.883,278.320,126.465,0.000
1757698455.080,176.270,-33.691,127.930,110.352,0.000
1757698455.083,-340.332,-61.523,-490.234,-172.363,0.000
1757698455.087,-329.102,-39.062,-472.168,-213.867,0.000
1757698455.091,194.336,-8.301,157.227,48.340,0.000
1757698455.095,356.934,-15.137,223.145,193.359,0.000
1757698455.099,-198.242,-48.340,-480.469,-82.031,0.000
1757698455.103,-394.043,-33.203,-556.641,-235.840,0.000
1757698455.107,35.645,-8.789,-46.875,-33.691,0.000
1757698455.111,415.039,-8.789,341.309,200.684,0.000
1757698455.115,-66.406,-29.297,-104.004,-26.855,0.000
1757698455.119,-408.691,-39.551,-518.066,-239.258,0.000
1757698455.123,-126.953,-30.762,-318.359,-121.582,0.000
1757698455.126,326.172,-6.836,164.062,154.785,0.000
1757698455.130,79.590,-25.879,-84.473,73.242,0.000
1757698455.134,-354.492,-38.086,-518.555,-189.941,0.000
1757698455.138,-229.004,-11.719,-367.676,-165.039,0.000
1757698455.142,318.848,1.465,183.105,137.207,0.000
1757698455.146,282.715,-8.789,143.555,187.500,0.000
1757698455.150,-274.414,-22.461,-395.508,-120.605,0.000
1757698455.154,-332.031,-19.531,-506.836,-211.914,0.000
1757698455.158,175.293,1.953,-62.012,48.340,0.000
1757698455.162,405.273,5.859,306.152,223.633,0.000
1757698455.166,-145.020,-27.344,-237.305,-52.246,0.000
1757698455.169,-391.113,-36.621,-559.082,-222.168,0.000
1757698455.173,3.906,-8.789,-111.328,-27.344,0.000
1757698455.177,430.176,11.230,301.270,220.215,0.000
1757698455.181,-8.789,-22.949,-132.324,13.672,0.000
1757698455.185,-403.320,-45.410,-567.871,-226.562,0.000
1757698455.189,-173.340,-42.969,-540.527,-127.930,0.000
1757698455.193,357.910,5.859,206.543,165.527,0.000
1757698455.197,160.156,-2.441,165.527,108.398,0.000
1757698455.201,-354.004,-39.062,-533.691,-170.410,0.000
1757698455.205,-274.414,-25.391,-495.117,-172.852,0.000
1757698455.209,281.250,14.648,251.465,125.488,0.000
1757698455.212,320.801,-3.906,273.438,199.707,0.000
1757698455.216,-255.859,-47.852,-398.438,-113.281,0.000
1757698455.220,-369.141,-32.715,-527.344,-220.703,0.000
1757698455.224,103.516,-4.395,-65.918,18.555,0.000
1757698455.228,399.414,-3.906,296.875,209.961,0.000
1757698455.232,-115.234,-37.598,-347.168,-44.922,0.000
1757698455.236,-408.691,-32.227,-654.297,-226.074,0.000
1757698455.240,-76.172,7.324,-126.953,-85.449,0.000
1757698455.244,397.461,12.695,345.703,190.918,0.000
1757698455.248,48.828,-29.785,-180.664,55.176,0.000
1757698455.252,-387.695,-35.645,-567.871,-202.148,0.000
1757698455.255,-211.426,-14.160,-312.012,-147.949,0.000
1757698455.259,334.961,0.977,225.586,158.203,0.000
1757698455.263,215.332,-14.648,37.109,153.809,0.000
1757698455.267,-315.430,-34.180,-476.562,-148.926,0.000
1757698455.271,-305.664,-30.273,-484.375,-190.430,0.000
1757698455.275,221.680,-7.812,18.555,83.496,0.000
1757698455.279,356.445,-25.879,-3.906,214.844,0.000
1757698455.283,-212.891,-44.922,-400.391,-80.078,0.000
1757698455.287,-390.625,-36.133,-459.473,-225.098,0.000
1757698455.291,50.781,-18.555,-99.121,-12.695,0.000
1757698455.294,411.621,-4.395,353.027,218.750,0.000
1757698455.298,-71.777,-28.320,-125.000,-9.766,0.000
1757698455.302,-416.992,-39.551,-528.320,-229.004,0.000
1757698455.306,-133.789,-26.855,-322.266,-111.328,0.000
1757698455.310,367.676,-0.977,248.047,175.781,0.000
1757698455.314,73.730,-21.484,12.207,63.965,0.000
1757698455.318,-400.879,-52.734,-556.152,-210.449,0.000
1757698455.322,-269.531,-44.434,-519.043,-174.316,0.000
1757698455.326,278.320,0.488,80.078,123.047,0.000
1757698455.330,250.488,4.395,241.211,151.855,0.000
1757698455.334,-289.062,-25.391,-375.000,-142.578,0.000
1757698455.337,-342.773,-30.273,-628.906,-207.031,0.000
1757698455.341,162.109,4.883,17.578,52.246,0.000
1757698455.345,382.324,17.578,376.953,215.332,0.000
1757698455.349,-169.922,-24.414,-282.227,-59.570,0.000
1757698455.353,-400.879,-35.645,-622.559,-221.191,0.000
1757698455.357,-3.906,-0.977,-121.094,-40.039,0.000
1757698455.361,412.109,17.578,387.207,212.402,0.000
1757698455.365,-21.973,-25.879,-206.543,14.648,0.000
1757698455.369,-410.645,-57.129,-782.715,-214.844,0.000
1757698455.373,-176.270,-20.996,-432.129,-129.395,0.000
1757698455.376,353.516,19.043,300.293,156.738,0.000
1757698455.380,145.508,-9.766,53.223,96.680,0.000
1757698455.384,-352.539,-33.691,-517.578,-190.918,0.000
1757698455.388,-274.414,-14.648,-398.438,-188.965,0.000
1757698455.392,265.137,11.719,233.887,103.516,0.000
1757698455.396,312.988,-7.324,223.145,180.664,0.000
1757698455.400,-246.582,-38.574,-417.969,-116.699,0.000
1757698455.404,-353.516,-34.668,-563.965,-215.820,0.000
1757698455.408,120.605,-3.906,-5.371,18.066,0.000
1757698455.412,399.902,-9.766,221.680,216.309,0.000
1757698455.416,-111.816,-38.574,-344.727,-24.902,0.000
1757698455.419,-382.812,-26.367,-511.230,-225.098,0.000
1757698455.423,-48.828,-3.418,-167.969,-93.750,0.000
1757698455.427,405.762,2.441,275.391,186.035,0.000
1757698455.431,31.250,-22.461,-86.426,36.621,0.000
1757698455.435,-409.668,-32.227,-487.305,-230.469,0.000
1757698455.439,-220.703,-28.320,-389.160,-172.363,0.000
1757698455.443,328.125,-8.789,146.484,136.719,0.000
1757698455.447,192.383,-16.113,147.461,118.164,0.000
1757698455.451,-329.590,-41.992,-385.254,-182.617,0.000
1757698455.455,-300.293,-39.551,-496.582,-215.820,0.000
1757698455.459,230.469,-17.578,-56.641,77.148,0.000
1757698455.462,342.773,-7.324,210.938,191.895,0.000
1757698455.466,-218.262,-26.855,-284.668,-108.398,0.000
1757698455.470,-380.859,-39.551,-587.891,-227.539,0.000
1757698455.474,61.035,-26.367,-300.781,-3.418,0.000
1757698455.478,403.809,6.348,292.480,214.844,0.000
1757698455.482,-82.520,-20.020,-138.184,-11.230,0.000
1757698455.486,-400.391,-39.551,-637.695,-218.750,0.000
1757698455.490,-108.398,-4.883,-261.719,-98.145,0.000
1757698455.494,358.398,14.648,285.156,176.270,0.000
1757698455.498,68.848,-23.438,-100.098,61.035,0.000
1757698455.502,-376.953,-45.410,-600.098,-204.590,0.000
1757698455.505,-249.023,-25.879,-464.844,-172.852,0.000
1757698455.509,309.082,19.043,224.121,126.465,0.000
1757698455.513,254.395,7.812,242.676,150.391,0.000
1757698455.517,-292.480,-44.922,-516.602,-136.719,0.000
1757698455.521,-319.824,-35.156,-580.566,-184.082,0.000
1757698455.525,175.293,8.789,127.930,63.965,0.000
1757698455.529,367.188,0.000,307.129,210.938,0.000
1757698455.533,-179.688,-40.039,-402.344,-57.129,0.000
1757698455.537,-398.438,-39.551,-619.141,-216.797,0.000
1757698455.541,0.488,-18.066,-131.348,-37.598,0.000
1757698455.544,401.855,-0.977,335.938,210.938,0.000
1757698455.548,-34.668,-30.762,-187.500,14.160,0.000
1757698455.552,-412.109,-55.176,-634.277,-219.727,0.000
1757698455.556,-165.039,-31.250,-319.336,-131.836,0.000
1757698455.560,367.188,0.000,256.348,169.434,0.000
1757698455.564,138.672,-39.551,-273.926,112.305,0.000
1757698455.568,-364.746,-39.062,-611.328,-188.477,0.000
1757698455.572,-276.855,-17.578,-340.820,-193.359,0.000
1757698455.576,263.184,-5.859,178.223,107.910,0.000
1757698455.580,284.668,-15.137,275.391,168.457,0.000
1757698455.584,-282.715,-41.504,-317.383,-142.578,0.000
1757698455.587,-371.582,-39.551,-536.133,-231.445,0.000
1757698455.591,114.746,-15.625,-71.777,15.137,0.000
1757698455.595,381.836,-2.930,317.871,203.125,0.000
1757698455.599,-139.160,-33.691,-321.777,-49.805,0.000
1757698455.603,-418.457,-39.062,-621.094,-233.887,0.000
1757698455.607,-62.500,-17.578,-316.406,-71.777,0.000
1757698455.611,396.484,8.789,139.160,198.730,0.000
1757698455.615,11.719,1.953,-33.203,23.438,0.000
1757698455.619,-397.949,-21.484,-503.906,-225.098,0.000
1757698455.623,-199.707,-17.578,-460.938,-155.762,0.000
1757698455.627,326.660,19.043,214.355,144.531,0.000
1757698455.630,163.086,-1.953,167.480,115.723,0.000
1757698455.634,-356.934,-41.016,-461.426,-180.664,0.000
1757698455.638,-318.359,-33.691,-483.887,-200.684,0.000
1757698455.642,211.914,2.930,192.383,74.707,0.000
1757698455.646,323.242,-8.301,257.812,179.688,0.000
1757698455.650,-232.910,-45.410,-447.754,-107.910,0.000
1757698455.654,-372.559,-42.480,-712.402,-226.074,0.000
1757698455.658,76.660,-3.906,-97.656,-0.488,0.000
1757698455.662,387.695,1.465,408.691,201.660,0.000
1757698455.666,-116.699,-46.875,-235.840,-44.922,0.000
1757698455.669,-430.664,-62.500,-728.516,-238.281,0.000
1757698455.673,-126.465,-20.508,-230.957,-116.699,0.000
1757698455.677,367.676,6.836,368.652,165.527,0.000
1757698455.681,60.059,-29.785,-112.305,52.246,0.000
1757698455.685,-402.344,-52.734,-604.492,-223.145,0.000
1757698455.689,-255.371,-27.344,-391.602,-182.617,0.000
1757698455.693,304.688,1.465,207.520,130.859,0.000
1757698455.697,238.770,-30.762,57.129,147.461,0.000
1757698455.701,-311.035,-57.617,-488.770,-151.855,0.000
1757698455.705,-333.984,-29.297,-458.496,-210.938,0.000
1757698455.709,178.711,-5.371,14.648,54.199,0.000
1757698455.712,363.770,-6.836,239.746,194.336,0.000
1757698455.716,-176.270,-29.785,-286.621,-95.215,0.000
1757698455.720,-392.090,-30.273,-512.695,-245.117,0.000
1757698455.724,16.602,-8.789,-123.047,-39.551,0.000
1757698455.728,415.039,0.000,260.254,205.566,0.000
1757698455.732,-40.039,-20.508,-134.766,-6.836,0.000
1757698455.736,-404.785,-30.273,-526.367,-228.516,0.000
1757698455.740,-139.648,-22.461,-419.922,-125.977,0.000
1757698455.744,378.418,-11.230,6.836,171.875,0.000
1757698455.748,127.441,-11.230,7.812,85.938,0.000
1757698455.752,-372.070,-27.832,-432.129,-206.543,0.000
1757698455.755,-276.855,-26.367,-474.121,-195.312,0.000
1757698455.759,279.785,10.254,116.699,102.539,0.000
1757698455.763,280.273,-3.906,193.848,158.203,0.000
1757698455.767,-283.691,-41.992,-378.906,-146.973,0.000
1757698455.771,-360.352,-35.156,-543.945,-237.305,0.000
1757698455.775,117.188,-5.859,-50.781,11.230,0.000
1757698455.779,373.047,-2.441,282.227,196.289,0.000
1757698455.783,-152.832,-26.367,-248.535,-66.895,0.000
1757698455.787,-419.434,-43.945,-634.766,-239.746,0.000
1757698455.791,-58.594,-20.508,-215.332,-76.660,0.000
1757698455.794,398.438,13.672,388.672,184.570,0.000
1757698455.798,10.742,-23.926,-72.266,19.043,0.000
1757698455.802,-409.180,-52.246,-633.789,-227.539,0.000
1757698455.806,-193.848,-25.391,-396.484,-157.227,0.000
1757698455.810,348.633,8.789,292.480,139.160,0.000
1757698455.814,176.270,-22.461,144.531,102.539,0.000
1757698455.818,-344.238,-67.871,-568.848,-188.477,0.000
1757698455.822,-297.363,-48.340,-496.582,-207.520,0.000
1757698455.826,237.793,-2.441,240.723,73.730,0.000
1757698455.830,324.219,-14.648,282.227,173.340,0.000
1757698455.834,-235.352,-58.594,-421.387,-110.352,0.000
1757698455.837,-378.418,-42.480,-574.707,-235.352,0.000
1757698455.841,75.684,-4.395,-0.488,-18.066,0.000
1757698455.845,412.109,-8.301,318.359,211.426,0.000
1757698455.849,-89.355,-43.457,-276.367,-28.809,0.000
1757698455.853,-429.688,-48.828,-576.172,-253.906,0.000
1757698455.857,-110.840,-22.949,-194.336,-115.234,0.000
1757698455.861,392.090,-13.184,277.344,182.617,0.000
1757698455.865,54.688,-45.410,-233.398,50.781,0.000
1757698455.869,-396.973,-48.340,-620.605,-219.727,0.000
1757698455.873,-242.676,-39.551,-444.824,-184.570,0.000
1757698455.877,303.223,-13.184,165.527,114.746,0.000
1757698455.880,224.609,-25.879,96.680,127.441,0.000
1757698455.884,-321.777,-46.875,-433.105,-168.945,0.000
1757698455.888,-341.309,-36.133,-441.406,-220.703,0.000
1757698455.892,178.223,-23.926,-14.160,48.828,0.000
1757698455.896,346.680,-17.578,196.289,189.453,0.000
1757698455.900,-208.496,-29.785,-257.812,-104.004,0.000
1757698455.904,-402.832,-36.621,-539.551,-247.070,0.000
1757698455.908,28.809,-13.672,-209.473,-37.598,0.000
1757698455.912,413.574,11.230,333.496,206.543,0.000
1757698455.916,-62.012,-19.531,-60.059,-8.789,0.000
1757698455.920,-408.691,-39.062,-522.949,-232.910,0.000
1757698455.923,-136.719,-27.344,-323.242,-122.070,0.000
1757698455.927,303.223,-9.277,132.812,126.465,0.000
1757698455.931,86.914,-23.926,-78.613,55.664,0.000
1757698455.935,-352.539,-51.758,-584.473,-194.336,0.000
1757698455.939,-270.508,-53.223,-632.324,-181.152,0.000
1757698455.943,276.367,2.441,180.176,115.723,0.000
1757698455.947,275.879,0.000,301.270,161.621,0.000
1757698455.951,-276.367,-42.969,-433.105,-137.695,0.000
1757698455.955,-362.305,-32.715,-501.465,-232.422,0.000
1757698455.959,130.371,0.488,93.750,11.230,0.000
1757698455.963,377.441,-7.324,318.848,191.895,0.000
1757698455.966,-173.340,-54.199,-337.402,-74.707,0.000
1757698455.970,-431.641,-51.758,-595.703,-250.488,0.000
1757698455.974,-44.434,-26.855,-207.520,-74.707,0.000
1757698455.978,392.578,-5.859,301.758,184.570,0.000
1757698455.982,-15.137,-41.992,-213.867,11.719,0.000
1757698455.986,-413.086,-60.547,-661.621,-216.309,0.000
1757698455.990,-195.801,-13.672,-287.598,-143.555,0.000
1757698455.994,349.609,14.648,279.297,150.879,0.000
1757698455.998,162.109,-21.973,-39.062,112.305,0.000
1757698456.002,-354.980,-43.457,-528.809,-165.039,0.000
1757698456.006,-272.461,-22.461,-392.090,-170.410,0.000
1757698456.009,255.371,5.859,188.477,86.426,0.000
1757698456.013,306.152,-5.859,187.500,152.832,0.000
1757698456.017,-243.164,-30.273,-364.258,-128.906,0.000
1757698456.021,-337.402,-26.855,-531.250,-225.586,0.000
1757698456.025,97.168,-5.859,-146.973,-17.578,0.000
1757698456.029,387.695,-10.742,118.652,192.383,0.000
1757698456.033,-126.465,-25.879,-193.848,-55.176,0.000
1757698456.037,-440.918,-26.367,-488.770,-262.695,0.000
1757698456.041,-110.840,-14.160,-270.020,-109.375,0.000
1757698456.045,376.465,2.930,275.391,184.082,0.000
1757698456.048,35.156,-17.090,-13.184,46.387,0.000
1757698456.052,-412.598,-36.133,-503.906,-218.262,0.000
1757698456.056,-234.863,-29.297,-418.457,-166.504,0.000
1757698456.060,319.824,-2.441,199.219,128.418,0.000
1757698456.064,218.262,-6.348,187.988,128.418,0.000
1757698456.068,-319.824,-37.109,-431.641,-158.691,0.000
1757698456.072,-324.707,-44.434,-599.609,-199.219,0.000
1757698456.076,204.590,-5.859,-53.711,69.824,0.000
1757698456.080,367.188,19.043,340.820,188.965,0.000
1757698456.084,-197.754,-19.531,-271.484,-101.074,0.000
1757698456.088,-371.094,-32.227,-638.672,-224.609,0.000
1757698456.091,54.199,2.930,-107.422,-20.508,0.000
1757698456.095,354.492,13.184,291.504,172.363,0.000
1757698456.099,-69.824,-26.855,-244.629,-20.508,0.000
1757698456.103,-391.602,-41.504,-634.277,-226.074,0.000
1757698456.107,-134.277,-11.230,-285.156,-128.418,0.000
1757698456.111,396.973,23.438,341.797,169.922,0.000
1757698456.115,119.629,-12.207,-73.242,75.195,0.000
1757698456.119,-352.539,-44.434,-715.820,-188.965,0.000
1757698456.123,-228.027,-1.953,-433.594,-174.316,0.000
1757698456.127,308.105,35.156,301.270,119.141,0.000
1757698456.130,288.574,7.812,208.984,173.828,0.000
1757698456.134,-266.602,-23.438,-409.668,-129.883,0.000
1757698456.138,-333.008,-17.578,-467.773,-216.309,0.000
1757698456.142,170.898,12.207,89.355,40.039,0.000
1757698456.146,401.367,15.137,295.898,210.449,0.000
1757698456.150,-141.602,-22.461,-312.988,-62.500,0.000
1757698456.154,-383.301,-26.855,-595.703,-223.633,0.000
1757698456.158,-10.742,3.418,-174.316,-47.363,0.000
1757698456.162,409.668,10.742,205.566,218.750,0.000
1757698456.166,2.441,-14.648,-314.941,42.969,0.000
1757698456.170,-383.301,-11.230,-534.180,-207.031,0.000
1757698456.173,-160.156,3.906,-298.828,-126.465,0.000
1757698456.177,365.234,18.555,238.770,176.270,0.000
1757698456.181,170.898,-0.488,130.859,116.211,0.000
1757698456.185,-337.402,-22.949,-413.574,-178.711,0.000
1757698456.189,-285.645,-18.555,-445.312,-185.059,0.000
1757698456.193,252.441,3.906,83.008,104.004,0.000
1757698456.197,315.918,5.859,254.395,187.500,0.000
1757698456.201,-248.535,-24.414,-308.594,-117.676,0.000
1757698456.205,-359.863,-34.668,-543.457,-228.027,0.000
1757698456.209,115.723,-15.625,-138.672,14.160,0.000
1757698456.213,405.273,4.883,259.277,221.680,0.000
1757698456.216,-106.934,-14.648,-207.520,-25.879,0.000
1757698456.220,-400.879,-33.203,-600.586,-217.285,0.000
1757698456.224,-68.848,-25.879,-441.406,-63.477,0.000
1757698456.228,397.461,12.695,250.488,207.031,0.000
1757698456.232,35.156,-19.531,17.090,51.758,0.000
1757698456.236,-392.578,-48.340,-595.703,-202.148,0.000
1757698456.240,-213.379,-19.043,-385.254,-148.438,0.000
1757698456.244,331.543,8.789,279.297,148.926,0.000
1757698456.248,223.633,-16.113,89.355,146.484,0.000
1757698456.252,-308.594,-41.992,-515.625,-143.555,0.000
1757698456.256,-307.129,-32.227,-542.480,-195.312,0.000
1757698456.259,207.031,0.488,61.035,62.012,0.000
1757698456.263,341.309,0.977,315.918,190.430,0.000
1757698456.267,-212.402,-43.457,-419.434,-81.543,0.000
1757698456.271,-391.113,-39.551,-650.391,-213.379,0.000
1757698456.275,40.039,4.883,-28.809,-18.555,0.000
1757698456.279,407.715,1.953,364.258,215.820,0.000
1757698456.283,-60.547,-43.945,-311.523,5.371,0.000
1757698456.287,-403.809,-39.062,-601.562,-212.891,0.000
1757698456.291,-119.141,-16.602,-198.242,-94.238,0.000
1757698456.295,387.695,-4.395,294.922,196.777,0.000
1757698456.298,95.215,-32.715,-142.090,78.125,0.000
1757698456.302,-381.348,-54.199,-636.230,-191.406,0.000
1757698456.306,-252.441,-27.832,-373.535,-163.086,0.000
1757698456.310,301.758,0.488,226.562,133.301,0.000
1757698456.314,266.113,-36.621,-117.188,177.246,0.000
1757698456.318,-287.598,-45.898,-490.723,-131.836,0.000
1757698456.322,-336.426,-35.156,-458.984,-213.867,0.000
1757698456.326,166.016,-17.090,-34.668,48.340,0.000
1757698456.330,387.695,-9.766,343.262,222.168,0.000
1757698456.334,-166.504,-43.945,-252.930,-59.082,0.000
1757698456.338,-405.273,-54.688,-598.145,-225.098,0.000
1757698456.341,0.488,-25.879,-193.848,-33.691,0.000
1757698456.345,422.363,2.441,347.656,215.820,0.000
1757698456.349,-17.578,-32.227,-166.992,33.691,0.000
1757698456.353,-406.738,-46.387,-548.828,-198.730,0.000
1757698456.357,-164.062,-37.109,-415.527,-106.934,0.000
1757698456.361,358.887,-13.184,58.105,200.195,0.000
1757698456.365,138.672,-20.996,103.516,121.582,0.000
1757698456.369,-357.422,-59.082,-451.660,-173.340,0.000
1757698456.373,-279.297,-62.500,-527.344,-175.781,0.000
1757698456.377,257.324,-28.809,166.504,113.281,0.000
1757698456.381,294.434,-28.320,266.602,185.059,0.000
1757698456.384,-272.461,-62.988,-373.535,-109.863,0.000
1757698456.388,-373.047,-72.754,-580.078,-202.637,0.000
1757698456.392,109.863,-36.621,-19.043,28.809,0.000
1757698456.396,393.066,-25.879,316.895,219.238,0.000
1757698456.400,-126.465,-70.312,-330.078,-42.480,0.000
1757698456.404,-413.086,-89.355,-778.320,-226.074,0.000
1757698456.408,-73.730,-40.039,-212.402,-70.312,0.000
1757698456.412,389.160,-12.207,412.598,196.777,0.000
1757698456.416,26.855,-53.711,-122.559,49.805,0.000
1757698456.420,-389.648,-64.453,-562.988,-201.660,0.000
1757698456.424,-198.242,-37.109,-313.965,-145.020,0.000
1757698456.427,351.074,-13.184,272.461,150.391,0.000
1757698456.431,197.754,-41.504,51.758,119.629,0.000
1757698456.435,-346.680,-66.406,-515.137,-161.133,0.000
1757698456.439,-320.312,-46.875,-505.859,-199.707,0.000
1757698456.443,219.238,-13.672,75.195,69.824,0.000
1757698456.447,352.539,-25.879,173.340,214.844,0.000
1757698456.451,-228.027,-67.383,-439.453,-81.543,0.000
1757698456.455,-410.156,-44.922,-505.859,-242.188,0.000
1757698456.459,38.574,-23.926,-52.734,-21.484,0.000
1757698456.463,391.113,-38.574,312.988,212.402,0.000
1757698456.466,-104.004,-69.336,-139.648,-20.996,0.000
1757698456.470,-437.988,-74.707,-520.996,-233.398,0.000
1757698456.474,-130.371,-48.828,-258.301,-106.445,0.000
1757698456.478,369.629,-24.414,235.840,192.383,0.000
1757698456.482,57.617,-42.480,-7.324,73.730,0.000
1757698456.486,-394.531,-55.664,-482.422,-196.289,0.000
1757698456.490,-247.070,-49.316,-472.656,-156.250,0.000
1757698456.494,303.711,-41.504,-40.039,146.484,0.000
1757698456.498,242.188,-33.691,96.680,162.598,0.000
1757698456.502,-308.594,-47.363,-334.473,-147.949,0.000
1757698456.506,-336.914,-59.570,-560.547,-209.961,0.000
1757698456.509,173.340,-29.785,-37.109,49.316,0.000
1757698456.513,367.188,-21.973,335.938,205.566,0.000
1757698456.517,-188.965,-60.059,-274.414,-67.871,0.000
1757698456.521,-403.809,-68.848,-598.145,-221.191,0.000
1757698456.525,29.297,-40.039,-130.371,-13.184,0.000
1757698456.529,415.039,-23.438,330.078,221.680,0.000
1757698456.533,-51.758,-51.270,-88.379,2.441,0.000
1757698456.537,-412.598,-76.172,-621.582,-214.355,0.000
1757698456.541,-161.621,-45.898,-369.629,-115.723,0.000
1757698456.545,367.188,-0.977,305.664,177.734,0.000
1757698456.548,135.742,-32.227,-28.809,102.539,0.000
1757698456.552,-366.699,-65.430,-618.164,-187.500,0.000
1757698456.556,-285.645,-44.922,-451.172,-186.523,0.000
1757698456.560,253.418,-10.742,267.090,97.656,0.000
1757698456.564,285.645,-27.832,262.207,166.504,0.000
1757698456.568,-265.625,-66.895,-491.699,-126.953,0.000
1757698456.572,-363.770,-51.270,-552.246,-227.539,0.000
1757698456.576,108.887,-15.625,57.129,5.859,0.000
1757698456.580,344.727,-22.461,274.414,184.082,0.000
1757698456.584,-161.133,-61.035,-360.352,-55.176,0.000
1757698456.588,-414.062,-46.875,-616.699,-233.887,0.000
1757698456.591,-63.965,-8.301,-122.070,-86.914,0.000
1757698456.595,395.996,-5.859,345.215,190.430,0.000
1757698456.599,14.160,-51.270,-364.746,41.016,0.000
1757698456.603,-398.926,-44.922,-670.410,-210.449,0.000
1757698456.607,-198.730,-14.648,-302.734,-146.484,0.000
1757698456.611,333.496,0.000,232.910,154.785,0.000
1757698456.615,175.781,-18.555,134.766,126.465,0.000
1757698456.619,-337.402,-43.945,-459.961,-163.086,0.000
1757698456.623,-302.734,-42.969,-529.785,-187.500,0.000
1757698456.627,221.680,-10.742,39.062,87.402,0.000
1757698456.631,330.078,-11.719,182.617,191.895,0.000
1757698456.634,-226.074,-40.527,-377.441,-101.074,0.000
1757698456.638,-383.301,-35.645,-515.625,-229.980,0.000
1757698456.642,64.453,-18.555,-156.738,-5.371,0.000
1757698456.646,400.879,0.488,219.727,226.074,0.000
1757698456.650,-84.961,-13.184,-108.887,-8.789,0.000
1757698456.654,-394.531,-41.016,-523.438,-203.125,0.000
1757698456.658,-83.984,-27.832,-401.367,-57.129,0.000
1757698456.662,396.484,7.812,240.723,201.172,0.000
1757698456.666,60.547,-20.996,23.438,56.152,0.000
1757698456.670,-395.508,-48.828,-533.691,-208.984,0.000
1757698456.674,-151.855,-31.738,-297.852,-118.164,0.000
1757698456.677,346.191,-7.812,207.520,152.344,0.000
1757698456.681,222.168,-15.137,120.605,132.812,0.000
1757698456.685,-303.223,-41.016,-417.969,-153.320,0.000
1757698456.689,-332.031,-55.664,-712.402,-197.754,0.000
1757698456.693,192.871,-4.883,9.766,68.359,0.000
1757698456.697,374.023,5.859,381.348,208.008,0.000
1757698456.701,-186.523,-45.410,-346.191,-72.266,0.000
1757698456.705,-395.508,-50.781,-627.441,-228.516,0.000
1757698456.709,15.625,-17.578,-96.191,-31.738,0.000
1757698456.713,406.738,-7.812,351.562,217.285,0.000
1757698456.717,-41.016,-45.898,-196.289,12.207,0.000
1757698456.720,-403.320,-48.828,-578.125,-211.914,0.000
1757698456.724,-147.461,-27.344,-343.262,-116.211,0.000
1757698456.728,368.652,-1.465,253.418,170.410,0.000
1757698456.732,133.789,-30.273,-39.062,101.562,0.000
1757698456.736,-353.027,-51.270,-585.938,-176.270,0.000
1757698456.740,-260.254,-16.602,-367.676,-171.875,0.000
1757698456.744,284.668,2.441,252.930,122.559,0.000
1757698456.748,290.039,-24.414,157.227,176.270,0.000
1757698456.752,-267.090,-47.363,-406.250,-131.348,0.000
1757698456.756,-346.680,-33.203,-465.332,-221.680,0.000
1757698456.760,141.113,-10.742,22.949,25.391,0.000
1757698456.763,390.137,-16.602,250.977,209.473,0.000
1757698456.767,-139.160,-43.945,-301.270,-50.781,0.000
1757698456.771,-392.578,-44.434,-584.473,-226.074,0.000
1757698456.775,-28.809,-24.414,-265.625,-58.594,0.000
1757698456.779,407.715,-6.836,136.719,212.891,0.000
1757698456.783,2.930,-18.555,-103.027,31.738,0.000
1757698456.787,-401.855,-32.227,-471.191,-226.562,0.000
1757698456.791,-197.266,-28.809,-421.387,-145.508,0.000
1757698456.795,343.750,-2.930,59.082,160.645,0.000
1757698456.799,180.664,-2.930,118.652,117.188,0.000
1757698456.802,-342.773,-30.762,-398.926,-173.340,0.000
1757698456.806,-299.316,-36.133,-530.273,-194.824,0.000
1757698456.810,233.398,-1.953,31.738,88.867,0.000
1757698456.814,321.289,7.324,270.996,188.477,0.000
1757698456.818,-241.699,-33.203,-360.840,-111.816,0.000
1757698456.822,-373.535,-50.781,-651.855,-217.773,0.000
1757698456.826,75.684,-25.391,-184.082,11.230,0.000
1757698456.830,389.648,5.859,357.910,205.566,0.000
1757698456.834,-108.887,-29.297,-152.832,-35.645,0.000
1757698456.838,-409.180,-56.152,-667.969,-231.934,0.000
1757698456.842,-95.215,-29.785,-297.363,-96.680,0.000
1757698456.845,380.371,0.977,348.145,187.500,0.000
1757698456.849,50.781,-26.855,-20.508,57.129,0.000
1757698456.853,-387.695,-51.270,-613.281,-204.590,0.000
1757698456.857,-229.004,-31.738,-393.066,-163.574,0.000
1757698456.861,312.012,-3.906,285.645,125.488,0.000
1757698456.865,229.980,-32.227,113.281,133.789,0.000
1757698456.869,-321.289,-79.590,-627.930,-153.809,0.000
1757698456.873,-341.797,-49.316,-541.992,-208.496,0.000
1757698456.877,188.477,-10.742,158.203,54.199,0.000
1757698456.881,354.492,-32.227,269.531,191.895,0.000
1757698456.884,-203.125,-64.453,-317.383,-91.797,0.000
1757698456.888,-393.555,-53.223,-530.762,-233.398,0.000
1757698456.892,28.809,-20.020,-76.172,-27.344,0.000
1757698456.896,400.391,-7.812,307.129,205.078,0.000
1757698456.900,-71.289,-41.016,-280.762,-14.160,0.000
1757698456.904,-420.898,-48.340,-611.816,-233.398,0.000
1757698456.908,-149.902,-16.113,-236.328,-133.789,0.000
1757698456.912,362.305,-6.348,206.055,159.668,0.000
1757698456.916,91.309,-39.551,-223.633,66.406,0.000
1757698456.920,-392.090,-41.504,-511.719,-228.027,0.000
1757698456.924,-271.973,-23.438,-370.605,-209.473,0.000
1757698456.927,281.738,-6.348,134.277,91.309,0.000
1757698456.931,273.438,-12.695,219.727,138.672,0.000
1757698456.935,-283.203,-33.691,-334.473,-160.645,0.000
1757698456.939,-345.703,-42.969,-591.309,-236.328,0.000
1757698456.943,142.090,-17.090,-133.789,19.531,0.000
1757698456.947,370.605,0.000,309.082,187.988,0.000
1757698456.951,-170.410,-32.227,-256.836,-82.520,0.000
1757698456.955,-416.992,-48.340,-591.309,-242.676,0.000
1757698456.959,-39.551,-30.273,-284.180,-73.242,0.000
1757698456.963,385.742,-0.977,243.652,174.805,0.000
1757698456.967,-14.648,-15.625,-77.637,-2.930,0.000
1757698456.970,-404.297,-37.598,-577.148,-234.863,0.000
1757698456.974,-192.383,-29.785,-529.297,-138.672,0.000
1757698456.978,347.168,20.508,224.609,159.180,0.000
1757698456.982,157.715,-1.465,138.184,94.727,0.000
1757698456.986,-354.980,-37.598,-544.922,-198.730,0.000
1757698456.990,-266.113,-17.578,-443.359,-194.336,0.000
1757698456.994,250.977,3.418,178.223,82.031,0.000
1757698456.998,309.082,-7.812,198.242,163.574,0.000
1757698457.002,-244.629,-31.738,-411.621,-123.535,0.000
1757698457.006,-374.512,-32.715,-608.398,-227.539,0.000
1757698457.010,92.285,5.859,-74.219,7.812,0.000
1757698457.013,399.902,21.484,351.074,211.914,0.000
1757698457.017,-113.281,-35.645,-342.285,-31.738,0.000
1757698457.021,-414.062,-47.363,-646.484,-225.098,0.000
1757698457.025,-83.984,-1.953,-125.000,-92.773,0.000
1757698457.029,401.367,14.160,325.195,188.965,0.000
1757698457.033,51.758,-29.297,-221.191,55.176,0.000
1757698457.037,-403.809,-45.410,-579.102,-202.637,0.000
1757698457.041,-226.074,-22.461,-313.965,-149.902,0.000
1757698457.045,328.613,-1.465,227.051,151.367,0.000
1757698457.049,218.750,-24.902,8.301,143.555,0.000
1757698457.052,-325.195,-49.805,-549.316,-158.691,0.000
1757698457.056,-315.918,-35.645,-506.836,-206.543,0.000
1757698457.060,219.727,-4.395,15.625,66.406,0.000
1757698457.064,372.070,-20.020,-8.789,217.285,0.000
1757698457.068,-216.797,-38.574,-424.805,-85.449,0.000
1757698457.072,-416.016,-30.762,-479.980,-246.094,0.000
1757698457.076,30.762,-17.090,-104.492,-29.785,0.000
1757698457.080,394.043,-2.930,360.352,200.195,0.000
1757698457.084,-83.008,-28.320,-105.469,-23.926,0.000
1757698457.088,-422.852,-42.969,-550.293,-230.957,0.000
1757698457.092,-139.160,-26.367,-319.824,-113.281,0.000
1757698457.095,372.559,6.836,292.480,172.852,0.000
1757698457.099,102.051,-20.508,-38.086,78.613,0.000
1757698457.103,-361.816,-41.992,-570.801,-191.895,0.000
1757698457.107,-247.559,-29.297,-516.602,-166.016,0.000
1757698457.111,289.551,3.906,-15.625,138.672,0.000
1757698457.115,262.207,14.160,223.633,165.039,0.000
1757698457.119,-290.527,-19.531,-335.449,-140.137,0.000
1757698457.123,-338.867,-28.809,-597.656,-200.684,0.000
1757698457.127,166.504,6.348,-8.301,54.199,0.000
1757698457.131,391.113,16.602,364.258,210.938,0.000
1757698457.135,-144.043,-24.414,-276.367,-61.035,0.000
1757698457.138,-383.301,-34.180,-643.066,-225.586,0.000
1757698457.142,0.488,-5.371,-157.715,-42.480,0.000
1757698457.146,420.410,11.719,338.867,217.773,0.000
1757698457.150,-1.465,-22.461,-208.008,24.902,0.000
1757698457.154,-383.789,-48.828,-759.766,-207.031,0.000
1757698457.158,-154.297,-6.836,-396.484,-129.395,0.000
1757698457.162,371.582,22.461,267.578,156.250,0.000
1757698457.166,165.527,-8.301,-5.371,108.398,0.000
1757698457.170,-341.797,-29.785,-492.188,-176.758,0.000
1757698457.174,-267.090,-20.020,-381.348,-183.594,0.000
1757698457.178,269.043,14.648,237.793,104.004,0.000
1757698457.181,316.895,1.953,239.746,186.523,0.000
1757698457.185,-243.164,-31.738,-394.043,-110.840,0.000
1757698457.189,-363.281,-23.926,-515.137,-219.238,0.000
1757698457.193,108.887,-3.906,-60.547,17.090,0.000
1757698457.197,411.621,-2.441,178.223,219.727,0.000
1757698457.201,-114.746,-32.227,-372.559,-24.902,0.000
1757698457.205,-412.109,-25.391,-533.691,-223.633,0.000
1757698457.209,-67.871,-8.789,-160.645,-80.566,0.000
1757698457.213,400.391,-4.883,315.430,199.219,0.000
1757698457.217,28.809,-25.391,-87.402,50.293,0.000
1757698457.220,-409.180,-28.809,-523.438,-205.566,0.000
1757698457.224,-214.355,-14.648,-362.793,-141.602,0.000
1757698457.228,339.355,5.859,162.109,156.250,0.000
1757698457.232,210.938,-1.953,152.344,131.836,0.000
1757698457.236,-315.430,-26.855,-368.652,-160.156,0.000
1757698457.240,-293.945,-29.297,-537.598,-187.500,0.000
1757698457.244,226.074,-14.160,-215.820,92.285,0.000
1757698457.248,346.191,5.371,183.594,207.031,0.000
1757698457.252,-210.449,-17.578,-270.020,-92.773,0.000
1757698457.256,-376.465,-29.297,-592.285,-229.980,0.000
1757698457.260,65.430,0.977,-104.004,-9.277,0.000
1757698457.263,419.922,14.160,364.746,221.191,0.000
1757698457.267,-66.895,-23.926,-110.840,-10.254,0.000
1757698457.271,-399.414,-47.363,-591.797,-220.703,0.000
1757698457.275,-108.398,-30.762,-351.562,-97.168,0.000
1757698457.279,385.742,1.953,276.367,187.500,0.000
1757698457.283,89.355,-18.066,42.480,73.730,0.000
1757698457.287,-382.324,-60.059,-594.238,-198.730,0.000
1757698457.291,-253.906,-44.922,-472.656,-170.898,0.000
1757698457.295,297.852,2.930,286.133,118.164,0.000
1757698457.299,257.324,-17.090,250.488,146.484,0.000
1757698457.302,-287.109,-52.246,-471.191,-148.926,0.000
1757698457.306,-326.172,-34.668,-529.297,-214.355,0.000
1757698457.310,174.316,1.465,118.164,41.992,0.000
1757698457.314,375.977,-2.441,327.637,198.242,0.000
1757698457.318,-172.363,-42.480,-409.180,-76.660,0.000
1757698457.322,-398.438,-35.645,-611.816,-240.723,0.000
1757698457.326,-5.371,-4.395,-100.586,-54.688,0.000
1757698457.330,401.367,-1.953,294.434,202.637,0.000
1757698457.334,-31.250,-44.434,-368.164,8.789,0.000
1757698457.338,-411.621,-45.898,-710.449,-235.352,0.000
1757698457.342,-162.109,-6.348,-262.695,-148.926,0.000
1757698457.345,371.094,10.254,254.883,146.973,0.000
1757698457.349,140.137,-22.949,-158.203,82.520,0.000
1757698457.353,-354.004,-22.461,-539.551,-198.730,0.000
1757698457.357,-264.160,-4.883,-370.605,-192.871,0.000
1757698457.361,265.137,5.371,183.105,86.914,0.000
1757698457.365,290.039,0.488,262.695,151.855,0.000
1757698457.369,-269.531,-25.391,-361.328,-138.184,0.000
1757698457.373,-359.863,-31.250,-588.867,-228.516,0.000
1757698457.377,119.629,-1.465,-100.098,15.137,0.000
1757698457.381,395.508,9.766,254.883,210.938,0.000
1757698457.385,-128.418,-16.602,-312.500,-49.805,0.000
1757698457.388,-414.062,-11.719,-565.430,-246.582,0.000
1757698457.392,-58.105,-2.930,-310.059,-81.055,0.000
1757698457.396,402.832,13.184,149.414,205.566,0.000
1757698457.400,20.508,8.789,-46.387,34.668,0.000
1757698457.404,-396.973,-21.484,-521.484,-227.051,0.000
1757698457.408,-209.961,-21.484,-466.797,-160.156,0.000
1757698457.412,328.613,20.508,222.656,146.973,0.000
1757698457.416,193.359,9.277,193.359,129.883,0.000
1757698457.420,-329.102,-23.926,-450.684,-165.039,0.000
1757698457.424,-308.594,-20.508,-537.598,-197.266,0.000
1757698457.428,222.168,2.930,25.391,85.938,0.000
1757698457.431,337.891,8.301,256.836,194.336,0.000
1757698457.435,-220.703,-19.531,-322.266,-95.703,0.000
1757698457.439,-376.465,-43.945,-748.535,-215.820,0.000
1757698457.443,55.176,4.395,-165.527,-14.648,0.000
1757698457.447,397.949,34.180,416.016,200.195,0.000
1757698457.451,-89.355,-16.602,-177.246,-21.973,0.000
1757698457.455,-411.621,-30.762,-580.566,-227.539,0.000
1757698457.459,-103.027,1.465,-214.844,-103.516,0.000
1757698457.463,387.207,18.066,305.664,178.711,0.000
1757698457.467,69.824,-22.949,-96.191,59.570,0.000
1757698457.471,-391.602,-39.062,-542.480,-202.148,0.000
1757698457.474,-249.512,-31.738,-451.660,-156.738,0.000
1757698457.478,305.664,1.953,193.848,137.695,0.000
1757698457.482,250.488,-11.719,79.102,158.691,0.000
1757698457.486,-296.875,-47.363,-545.410,-133.301,0.000
1757698457.490,-329.590,-23.438,-465.820,-204.590,0.000
1757698457.494,174.805,-0.488,68.848,52.734,0.000
1757698457.498,361.328,-10.254,247.559,204.102,0.000
1757698457.502,-175.293,-37.598,-308.105,-78.613,0.000
1757698457.506,-378.418,-35.156,-534.180,-239.746,0.000
1757698457.510,15.625,-10.254,-130.859,-45.410,0.000
1757698457.514,405.273,-10.254,251.465,206.055,0.000
1757698457.517,-40.527,-34.180,-137.207,-3.906,0.000
1757698457.521,-409.180,-46.875,-566.406,-233.887,0.000
1757698457.525,-159.180,-37.109,-415.039,-135.742,0.000
1757698457.529,368.164,-27.832,44.434,171.387,0.000
1757698457.533,124.512,-28.320,-8.301,87.402,0.000
1757698457.537,-367.188,-36.133,-430.176,-213.867,0.000
1757698457.541,-265.137,-35.156,-485.352,-197.754,0.000
1757698457.545,263.672,-1.953,102.539,100.098,0.000
1757698457.549,278.809,-12.695,234.863,165.039,0.000
1757698457.553,-274.902,-45.410,-432.129,-129.395,0.000
1757698457.556,-360.840,-34.668,-629.395,-219.727,0.000
1757698457.560,129.883,1.953,-83.496,26.367,0.000
1757698457.564,379.883,10.742,338.379,199.707,0.000
1757698457.568,-156.250,-33.203,-310.059,-67.383,0.000
1757698457.572,-413.086,-41.992,-671.387,-235.352,0.000
1757698457.576,-48.828,-7.324,-180.664,-72.266,0.000
1757698457.580,402.344,16.113,360.352,191.406,0.000
1757698457.584,11.230,-17.578,-59.082,24.902,0.000
1757698457.588,-403.809,-55.664,-664.551,-216.309,0.000
1757698457.592,-197.754,-35.156,-454.102,-142.578,0.000
1757698457.596,341.797,14.160,310.547,146.484,0.000
1757698457.599,172.852,-13.184,146.973,113.281,0.000
1757698457.603,-345.703,-51.270,-553.223,-174.316,0.000
1757698457.607,-295.410,-37.598,-530.273,-187.500,0.000
1757698457.611,234.863,-2.441,127.441,94.727,0.000
1757698457.615,314.941,-17.578,220.703,175.781,0.000
1757698457.619,-241.211,-61.523,-524.414,-107.910,0.000
1757698457.623,-388.184,-42.969,-607.422,-227.051,0.000
1757698457.627,62.988,-5.859,10.742,-18.555,0.000
1757698457.631,396.973,-8.789,328.613,201.660,0.000
1757698457.635,-105.957,-46.387,-240.723,-28.809,0.000
1757698457.638,-419.922,-53.711,-546.387,-229.492,0.000
1757698457.642,-100.586,-28.809,-178.711,-89.355,0.000
1757698457.646,383.789,-11.719,329.102,199.707,0.000
1757698457.650,53.711,-41.504,-75.684,60.547,0.000
1757698457.654,-394.531,-64.453,-590.332,-212.402,0.000
1757698457.658,-233.887,-41.504,-383.301,-166.504,0.000
1757698457.662,313.965,-19.531,146.973,140.137,0.000
1757698457.666,223.145,-39.551,-45.410,154.297,0.000
1757698457.670,-322.754,-43.457,-463.867,-155.762,0.000
1757698457.674,-334.961,-33.203,-464.355,-209.473,0.000
1757698457.678,193.848,-14.160,6.348,68.848,0.000
1757698457.681,363.770,-11.230,278.809,209.961,0.000
1757698457.685,-204.590,-42.480,-270.020,-77.148,0.000
1757698457.689,-404.785,-48.828,-549.805,-229.492,0.000
1757698457.693,17.578,-27.344,-222.656,-32.227,0.000
1757698457.697,404.297,-9.277,294.922,217.285,0.000
1757698457.701,-56.152,-40.527,-87.891,2.441,0.000
1757698457.705,-411.621,-57.129,-548.828,-229.980,0.000
1757698457.709,-138.672,-47.363,-421.875,-109.863,0.000
1757698457.713,370.117,-21.484,224.121,177.734,0.000
1757698457.717,76.660,-41.504,35.156,59.570,0.000
1757698457.721,-386.719,-75.684,-602.539,-196.777,0.000
1757698457.724,-266.113,-66.895,-617.188,-160.645,0.000
1757698457.728,264.160,-17.090,181.641,115.723,0.000
1757698457.732,268.066,-21.973,299.316,168.457,0.000
1757698457.736,-287.109,-66.406,-435.059,-130.859,0.000
1757698457.740,-361.816,-56.641,-538.086,-215.820,0.000
1757698457.744,138.184,-26.855,31.250,39.062,0.000
1757698457.748,385.742,-26.367,277.832,217.285,0.000
1757698457.752,-151.855,-52.246,-349.121,-52.246,0.000
1757698457.756,-397.461,-58.594,-651.367,-228.027,0.000
1757698457.760,-27.832,-26.855,-185.547,-52.246,0.000
1757698457.764,398.926,-4.395,355.469,210.938,0.000
1757698457.767,-5.371,-48.828,-205.566,29.297,0.000
1757698457.771,-405.762,-63.965,-615.723,-217.285,0.000
1757698457.775,-187.988,-29.785,-300.293,-151.855,0.000
1757698457.779,354.492,-12.207,224.609,145.020,0.000
1757698457.783,172.852,-40.527,-28.320,110.840,0.000
1757698457.787,-344.238,-57.617,-524.414,-186.523,0.000
1757698457.791,-291.504,-42.969,-397.949,-204.102,0.000
1757698457.795,244.141,-16.602,186.523,86.914,0.000
1757698457.799,320.312,-26.855,187.500,180.664,0.000
1757698457.803,-244.141,-54.688,-433.105,-112.793,0.000
1757698457.807,-370.605,-41.504,-543.457,-225.586,0.000
1757698457.810,98.633,-12.207,-71.777,0.977,0.000
1757698457.814,404.297,-20.996,75.684,211.914,0.000
1757698457.818,-102.051,-32.227,-314.941,-33.203,0.000
1757698457.822,-396.973,-26.367,-508.301,-231.934,0.000
1757698457.826,-71.289,-14.648,-245.605,-85.938,0.000
1757698457.830,399.902,0.977,281.738,189.453,0.000
1757698457.834,53.223,-21.484,-77.637,46.875,0.000
1757698457.838,-383.301,-38.574,-551.758,-209.473,0.000
1757698457.842,-206.055,-36.133,-418.945,-149.414,0.000
1757698457.846,323.730,-9.766,205.566,148.926,0.000
1757698457.849,192.871,-27.344,41.992,126.465,0.000
1757698457.853,-331.055,-50.293,-491.211,-164.551,0.000
1757698457.857,-328.613,-44.434,-595.703,-201.660,0.000
1757698457.861,195.801,-18.555,-181.641,73.242,0.000
1757698457.865,348.145,0.000,279.785,191.406,0.000
1757698457.869,-212.891,-33.203,-258.789,-93.750,0.000
1757698457.873,-397.461,-45.898,-648.438,-224.121,0.000
1757698457.877,24.414,-13.184,-133.789,-22.461,0.000
1757698457.881,402.344,5.371,404.297,210.449,0.000
1757698457.885,-62.988,-38.574,-133.789,-5.859,0.000
1757698457.889,-409.180,-60.059,-661.133,-223.633,0.000
1757698457.893,-125.488,-21.484,-326.172,-113.770,0.000
1757698457.896,382.812,3.906,276.855,173.340,0.000
1757698457.900,100.098,-25.879,-88.867,74.707,0.000
1757698457.904,-384.766,-58.594,-729.980,-187.500,0.000
1757698457.908,-266.602,-25.391,-451.172,-165.039,0.000
1757698457.912,283.203,22.949,312.500,121.582,0.000
1757698457.916,259.766,-3.418,211.426,162.598,0.000
1757698457.920,-298.828,-35.156,-406.738,-139.648,0.000
1757698457.924,-355.957,-21.484,-490.723,-208.984,0.000
1757698457.928,160.645,11.230,87.891,41.016,0.000
1757698457.932,386.719,4.883,282.227,194.336,0.000
1757698457.935,-160.645,-31.250,-371.582,-74.707,0.000
1757698457.939,-370.605,-19.043,-590.332,-218.262,0.000
1757698457.943,17.578,12.207,-166.016,-35.156,0.000
1757698457.947,418.457,27.832,247.559,193.848,0.000
1757698457.951,-22.461,0.977,-242.676,-14.160,0.000
1757698457.955,-424.805,-6.836,-543.945,-258.789,0.000
1757698457.959,-193.848,12.695,-310.059,-162.109,0.000
1757698457.963,336.426,29.785,208.496,139.160,0.000
1757698457.967,126.465,18.555,54.199,63.477,0.000
1757698457.971,-391.113,4.883,-488.770,-231.934,0.000
1757698457.975,-327.637,10.254,-432.129,-241.211,0.000
1757698457.978,213.379,29.785,121.094,39.551,0.000
1757698457.982,266.602,33.203,241.699,120.605,0.000
1757698457.986,-303.223,4.395,-300.293,-179.199,0.000
1757698457.990,-424.805,-11.719,-573.730,-293.945,0.000
1757698457.994,50.781,4.395,-269.531,-61.523,0.000
1757698457.998,347.656,26.367,223.145,132.812,0.000
1757698458.002,-173.340,4.883,-189.453,-114.746,0.000
1757698458.006,-467.773,-7.324,-591.309,-302.734,0.000
1757698458.010,-133.301,8.301,-223.145,-159.668,0.000
1757698458.014,336.914,33.203,334.961,127.441,0.000
1757698458.018,-16.113,8.789,-33.203,-13.672,0.000
1757698458.021,-440.918,-16.113,-572.754,-275.391,0.000
1757698458.025,-257.812,-0.488,-437.012,-214.844,0.000
1757698458.029,304.688,31.738,220.215,104.980,0.000
1757698458.033,192.383,19.531,172.363,101.074,0.000
1757698458.037,-358.887,-26.855,-509.766,-202.148,0.000
1757698458.041,-350.098,-21.484,-533.203,-231.934,0.000
1757698458.045,182.617,22.461,217.773,39.551,0.000
1757698458.049,318.848,7.812,312.500,154.785,0.000
1757698458.053,-229.004,-43.457,-404.297,-127.441,0.000
1757698458.057,-391.113,-38.574,-640.625,-250.488,0.000
1757698458.060,38.086,4.883,-61.523,-41.016,0.000
1757698458.064,396.973,19.531,375.977,191.895,0.000
1757698458.068,-80.566,-25.879,-263.184,-25.879,0.000
1757698458.072,-410.156,-40.039,-607.422,-238.281,0.000
1757698458.076,-114.746,-7.812,-192.871,-110.352,0.000
1757698458.080,390.137,12.695,309.570,184.570,0.000
1757698458.084,103.516,-26.367,-212.402,80.078,0.000
1757698458.088,-372.559,-36.621,-597.168,-198.730,0.000
1757698458.092,-247.070,-11.230,-322.754,-174.805,0.000
1757698458.096,298.340,10.742,207.520,125.000,0.000
1757698458.100,265.625,-18.555,-99.121,166.992,0.000
1757698458.103,-286.621,-28.320,-502.441,-137.695,0.000
1757698458.107,-333.008,-16.602,-416.992,-206.055,0.000
1757698458.111,183.594,-4.395,35.645,65.918,0.000
1757698458.115,391.602,2.441,322.266,227.051,0.000
1757698458.119,-159.180,-27.832,-304.688,-51.758,0.000
1757698458.123,-363.281,-36.133,-621.094,-210.938,0.000
1757698458.127,100.586,-1.953,-62.500,15.137,0.000
1757698458.131,427.734,10.254,311.523,230.957,0.000
1757698458.135,-32.715,-20.508,-200.195,13.672,0.000
1757698458.139,-375.977,-26.855,-495.605,-206.055,0.000
1757698458.143,-146.973,-20.020,-412.109,-115.234,0.000
1757698458.146,375.488,4.883,52.734,189.941,0.000
1757698458.150,154.785,4.395,104.492,119.141,0.000
1757698458.154,-350.098,-31.738,-438.477,-171.875,0.000
1757698458.158,-254.883,-25.391,-511.719,-155.273,0.000
1757698458.162,307.617,18.555,207.031,145.996,0.000
1757698458.166,334.473,14.648,295.410,201.172,0.000
1757698458.170,-253.418,-20.996,-410.156,-125.488,0.000
1757698458.174,-366.211,-12.695,-609.375,-238.281,0.000
1757698458.178,125.000,16.602,-100.586,5.371,0.000
1757698458.182,408.203,20.996,303.223,192.383,0.000
1757698458.185,-118.652,-10.742,-256.836,-64.453,0.000
1757698458.189,-393.066,-36.621,-755.859,-233.398,0.000
1757698458.193,-55.176,6.836,-240.234,-92.285,0.000
1757698458.197,405.762,37.598,397.461,170.898,0.000
1757698458.201,45.410,-7.324,-89.844,29.785,0.000
1757698458.205,-380.859,-27.832,-547.363,-218.750,0.000
1757698458.209,-187.500,-2.930,-310.547,-154.297,0.000
1757698458.213,358.887,21.484,279.785,156.738,0.000
1757698458.217,211.426,-4.395,56.641,134.277,0.000
1757698458.221,-303.711,-25.879,-483.398,-159.668,0.000
1757698458.225,-256.348,-20.508,-485.352,-158.203,0.000
1757698458.228,247.070,6.348,66.406,98.145,0.000
1757698458.232,354.492,-5.371,178.223,190.430,0.000
1757698458.236,-202.637,-41.504,-433.594,-83.496,0.000
1757698458.240,-366.211,-23.926,-518.066,-220.703,0.000
1757698458.244,83.984,1.953,-38.086,-3.906,0.000
1757698458.248,424.805,-2.930,315.430,227.539,0.000
1757698458.252,-60.059,-28.320,-146.484,3.418,0.000
1757698458.256,-377.441,-23.926,-532.715,-202.148,0.000
1757698458.260,-86.426,-10.254,-264.648,-82.031,0.000
1757698458.264,402.344,5.859,251.465,207.520,0.000
1757698458.268,100.098,-11.719,-32.227,90.820,0.000
1757698458.271,-368.652,-37.109,-539.062,-185.059,0.000
1757698458.275,-232.910,-26.367,-464.844,-156.738,0.000
1757698458.279,316.895,-5.859,0.000,150.879,0.000
1757698458.283,258.301,0.488,159.180,171.875,0.000
1757698458.287,-291.504,-18.066,-322.266,-136.230,0.000
1757698458.291,-327.637,-27.832,-541.016,-193.848,0.000
1757698458.295,189.941,5.371,-16.113,74.219,0.000
1757698458.299,390.625,15.625,325.195,226.074,0.000
1757698458.303,-161.133,-17.578,-256.836,-59.082,0.000
1757698458.307,-387.695,-39.551,-609.863,-213.867,0.000
1757698458.311,14.648,-19.043,-182.617,-18.555,0.000
1757698458.314,416.016,-1.953,337.402,228.516,0.000
1757698458.318,-31.738,-40.039,-173.828,28.320,0.000
1757698458.322,-402.832,-58.594,-666.016,-201.660,0.000
1757698458.326,-153.809,-38.086,-450.195,-108.887,0.000
1757698458.330,370.605,9.766,276.367,176.270,0.000
1757698458.334,137.695,-22.461,50.293,99.121,0.000
1757698458.338,-361.328,-56.152,-588.379,-180.176,0.000
1757698458.342,-275.879,-30.762,-424.316,-179.199,0.000
1757698458.346,270.508,2.930,283.691,106.445,0.000
1757698458.350,294.922,-15.625,275.391,175.293,0.000
1757698458.353,-248.535,-53.711,-474.609,-114.258,0.000
1757698458.357,-341.309,-39.062,-543.945,-208.008,0.000
1757698458.361,125.000,-7.324,55.176,29.785,0.000
1757698458.365,392.090,-21.973,266.113,224.121,0.000
1757698458.369,-133.301,-71.777,-493.652,-26.855,0.000
1757698458.373,-395.508,-49.316,-657.715,-214.355,0.000
1757698458.377,-34.180,-6.348,-103.516,-63.965,0.000
1757698458.381,414.062,-3.418,322.754,203.125,0.000
1757698458.385,26.367,-32.715,-114.746,42.969,0.000
1757698458.389,-394.531,-41.992,-542.969,-211.914,0.000
1757698458.393,-193.359,-26.855,-393.066,-139.648,0.000
1757698458.396,351.074,3.906,205.566,163.086,0.000
1757698458.400,198.730,-15.625,103.516,129.883,0.000
1757698458.404,-325.684,-51.270,-496.582,-162.598,0.000
1757698458.408,-281.250,-34.668,-477.051,-176.758,0.000
1757698458.412,261.719,-9.766,74.707,112.793,0.000
1757698458.416,340.332,-13.184,210.449,192.383,0.000
1757698458.420,-232.910,-24.414,-301.758,-123.535,0.000
1757698458.424,-380.859,-29.785,-507.812,-241.699,0.000
1757698458.428,78.613,-12.695,-114.258,-10.254,0.000
1757698458.432,412.598,9.277,339.355,210.449,0.000
1757698458.435,-93.262,-15.625,-107.422,-34.668,0.000
1757698458.439,-395.996,-27.832,-533.691,-232.422,0.000
1757698458.443,-43.945,-15.137,-333.984,-55.176,0.000
1757698458.447,413.086,9.277,217.773,201.660,0.000
1757698458.451,65.918,-9.277,3.418,44.922,0.000
1757698458.455,-375.000,-42.480,-516.113,-209.961,0.000
1757698458.459,-229.980,-39.062,-529.785,-163.086,0.000
1757698458.463,315.918,1.465,149.414,132.812,0.000
1757698458.467,244.629,-0.977,243.164,143.066,0.000
1757698458.471,-294.434,-43.945,-426.758,-144.531,0.000
1757698458.475,-312.500,-48.828,-682.129,-182.129,0.000
1757698458.478,207.520,7.324,51.270,72.754,0.000
1757698458.482,386.230,4.395,355.469,203.125,0.000
1757698458.486,-175.781,-45.898,-347.656,-72.266,0.000
1757698458.490,-382.324,-42.480,-573.242,-223.633,0.000
1757698458.494,24.902,-17.090,-100.098,-38.086,0.000
1757698458.498,414.062,-7.324,304.199,203.613,0.000
1757698458.502,-37.109,-36.133,-220.703,6.836,0.000
1757698458.506,-395.508,-45.410,-636.230,-217.773,0.000
1757698458.510,-139.160,-21.484,-358.887,-116.699,0.000
1757698458.514,368.164,8.789,280.273,169.922,0.000
1757698458.518,122.070,-27.344,-91.797,90.332,0.000
1757698458.521,-358.398,-52.734,-616.211,-177.734,0.000
1757698458.525,-263.672,-18.555,-357.422,-183.105,0.000
1757698458.529,280.762,3.906,247.070,112.793,0.000
1757698458.533,288.086,-13.672,123.047,170.898,0.000
1757698458.537,-271.973,-39.062,-444.336,-130.371,0.000
1757698458.541,-354.980,-33.691,-468.262,-211.426,0.000
1757698458.545,139.648,-5.859,30.762,28.320,0.000
1757698458.549,385.742,-8.789,258.789,205.078,0.000
1757698458.553,-156.738,-39.551,-343.262,-59.570,0.000
1757698458.557,-414.551,-39.062,-557.617,-235.840,0.000
1757698458.561,-41.504,-15.625,-218.750,-66.895,0.000
1757698458.564,412.109,-1.465,106.934,210.938,0.000
1757698458.568,7.812,-8.789,-111.328,32.227,0.000
1757698458.572,-414.551,-17.090,-475.098,-221.680,0.000
1757698458.576,-200.684,-16.113,-364.258,-140.137,0.000
1757698458.580,342.773,9.277,251.953,150.879,0.000
1757698458.584,166.992,-1.465,153.809,107.422,0.000
1757698458.588,-342.285,-32.227,-455.078,-171.387,0.000
1757698458.592,-299.316,-25.879,-534.180,-191.406,0.000
1757698458.596,227.539,13.184,117.676,82.031,0.000
1757698458.600,315.430,5.859,241.699,187.988,0.000
1757698458.604,-247.559,-27.344,-387.695,-113.770,0.000
1757698458.607,-365.234,-31.250,-633.301,-222.168,0.000
1757698458.611,103.027,-4.395,-201.172,41.992,0.000
1757698458.615,393.555,20.996,324.219,221.680,0.000
1757698458.619,-121.582,-16.113,-142.578,-45.898,0.000
1757698458.623,-432.617,-34.668,-622.070,-240.234,0.000
1757698458.627,-113.770,-5.859,-232.910,-103.516,0.000
1757698458.631,378.906,17.578,366.211,179.199,0.000
1757698458.635,36.621,-15.137,-41.504,43.457,0.000
1757698458.639,-410.645,-48.828,-620.605,-216.309,0.000
1757698458.643,-239.258,-22.949,-417.969,-168.457,0.000
1757698458.646,317.871,13.672,241.699,126.953,0.000
1757698458.650,223.145,-8.789,77.637,135.742,0.000
1757698458.654,-322.754,-41.504,-629.883,-148.926,0.000
1757698458.658,-333.496,-17.090,-507.324,-202.148,0.000
1757698458.662,190.430,18.555,203.613,55.664,0.000
1757698458.666,349.121,5.371,286.621,190.918,0.000
1757698458.670,-208.008,-31.250,-357.422,-92.773,0.000
1757698458.674,-395.020,-21.484,-554.199,-236.328,0.000
1757698458.678,28.320,8.789,-55.176,-32.227,0.000
1757698458.682,398.926,6.348,325.195,208.008,0.000
1757698458.686,-72.266,-25.391,-255.371,-7.324,0.000
1757698458.689,-423.828,-29.785,-565.430,-235.352,0.000
1757698458.693,-135.742,-13.672,-292.969,-119.141,0.000
1757698458.697,374.512,-3.418,176.758,174.316,0.000
1757698458.701,100.098,-36.133,-228.516,82.520,0.000
1757698458.705,-379.395,-42.480,-568.848,-201.660,0.000
1757698458.709,-260.742,-28.320,-376.465,-178.711,0.000
1757698458.713,290.527,-8.789,173.340,121.582,0.000
1757698458.717,270.020,-16.602,240.234,165.527,0.000
1757698458.721,-286.621,-39.062,-342.285,-131.348,0.000
1757698458.725,-344.727,-41.992,-529.297,-210.938,0.000
1757698458.729,160.645,-22.461,-100.098,42.969,0.000
1757698458.732,388.184,-9.766,316.406,209.961,0.000
1757698458.736,-166.992,-37.598,-224.609,-65.918,0.000
1757698458.740,-415.039,-57.129,-627.441,-237.793,0.000
1757698458.744,-33.691,-44.434,-390.137,-57.129,0.000
1757698458.748,394.043,-3.906,242.676,196.289,0.000
1757698458.752,-20.508,-25.391,-29.297,8.301,0.000
1757698458.756,-415.039,-54.199,-564.453,-228.027,0.000
1757698458.760,-184.082,-34.668,-354.004,-138.672,0.000
1757698458.764,354.980,-1.953,289.551,157.715,0.000
1757698458.768,159.180,-18.066,145.996,103.027,0.000
1757698458.772,-356.934,-46.875,-502.441,-181.641,0.000
1757698458.775,-295.410,-39.062,-491.699,-190.918,0.000
1757698458.779,248.535,-14.648,104.004,80.078,0.000
1757698458.783,279.297,-18.066,157.715,141.113,0.000
1757698458.787,-275.879,-51.270,-471.191,-135.254,0.000
1757698458.791,-373.535,-47.363,-697.754,-214.844,0.000
1757698458.795,101.562,7.812,-35.156,12.695,0.000
1757698458.799,404.785,15.137,369.629,200.195,0.000
1757698458.803,-122.559,-30.762,-292.969,-55.176,0.000
1757698458.807,-419.922,-32.715,-592.285,-250.488,0.000
1757698458.811,-75.195,-1.953,-151.855,-102.051,0.000
1757698458.814,404.785,8.789,327.148,181.641,0.000
1757698458.818,39.551,-28.809,-170.410,33.691,0.000
1757698458.822,-400.879,-37.109,-592.773,-229.492,0.000
1757698458.826,-222.656,-15.625,-326.172,-170.410,0.000
1757698458.830,321.289,1.953,215.820,131.836,0.000
1757698458.834,217.285,-25.879,-55.664,126.953,0.000
1757698458.838,-325.195,-46.875,-562.988,-169.922,0.000
1757698458.842,-324.707,-29.297,-425.293,-214.355,0.000
1757698458.846,213.379,0.488,144.043,60.059,0.000
1757698458.850,363.770,-18.066,12.695,195.801,0.000
1757698458.854,-202.148,-36.133,-442.871,-88.867,0.000
1757698458.857,-378.906,-26.367,-490.723,-233.887,0.000
1757698458.861,60.059,-12.207,-115.234,-29.297,0.000
1757698458.865,422.363,4.395,366.699,201.660,0.000
1757698458.869,-53.711,-27.344,-126.465,-18.066,0.000
1757698458.873,-401.367,-46.875,-618.164,-231.445,0.000
1757698458.877,-124.512,-18.555,-350.586,-116.211,0.000
1757698458.881,388.672,5.859,239.746,171.387,0.000
1757698458.885,103.516,-15.137,-65.430,65.918,0.000
1757698458.889,-369.629,-28.320,-497.070,-207.520,0.000
1757698458.893,-241.699,-24.902,-519.531,-179.199,0.000
1757698458.897,296.875,0.488,-65.430,115.234,0.000
1757698458.900,270.508,9.766,230.957,144.531,0.000
1757698458.904,-266.113,-20.996,-343.262,-150.391,0.000
1757698458.908,-327.637,-28.320,-608.398,-219.238,0.000
1757698458.912,170.898,12.695,9.277,31.738,0.000
1757698458.916,396.484,26.855,361.328,200.195,0.000
1757698458.920,-151.367,-16.602,-276.855,-74.707,0.000
1757698458.924,-393.555,-29.785,-658.691,-237.793,0.000
1757698458.928,-8.789,-3.418,-250.488,-58.594,0.000
1757698458.932,414.062,19.531,321.289,196.289,0.000
1757698458.936,-19.531,-15.137,-111.816,3.418,0.000
1757698458.940,-406.738,-48.340,-739.258,-229.980,0.000
1757698458.943,-168.945,-6.348,-387.695,-143.555,0.000
1757698458.947,348.633,24.902,295.898,137.695,0.000
1757698458.951,138.184,-14.648,-23.926,82.031,0.000
1757698458.955,-356.445,-31.250,-527.344,-200.684,0.000
1757698458.959,-282.227,-10.254,-387.207,-210.449,0.000
1757698458.963,257.324,9.766,213.379,79.102,0.000
1757698458.967,311.523,-2.930,171.387,161.621,0.000
1757698458.971,-250.977,-22.949,-400.391,-134.766,0.000
1757698458.975,-362.793,-27.832,-583.496,-229.980,0.000
1757698458.979,114.258,2.930,-85.938,8.301,0.000
1757698458.982,409.180,14.160,241.699,206.055,0.000
1757698458.986,-115.234,-14.160,-307.617,-47.852,0.000
1757698458.990,-403.809,-17.578,-541.992,-239.258,0.000
1757698458.994,-55.664,-2.441,-157.715,-88.867,0.000
1757698458.998,413.086,-1.465,232.910,195.312,0.000
1757698459.002,35.156,-26.855,-224.609,53.223,0.000
1757698459.006,-407.715,-34.668,-582.520,-210.449,0.000
1757698459.010,-218.262,-31.250,-449.219,-156.738,0.000
1757698459.014,333.008,-1.953,179.199,144.043,0.000
1757698459.018,201.172,-8.301,158.203,124.023,0.000
1757698459.022,-329.590,-47.363,-471.680,-171.387,0.000
1757698459.025,-305.664,-38.086,-542.969,-197.754,0.000
1757698459.029,230.957,-14.160,-119.629,85.938,0.000
1757698459.033,353.516,-5.859,219.727,201.172,0.000
1757698459.037,-210.449,-21.973,-248.535,-90.820,0.000
1757698459.041,-377.930,-37.109,-578.125,-226.562,0.000
1757698459.045,53.223,-6.348,-84.473,-21.973,0.000
1757698459.049,405.273,20.996,391.602,198.242,0.000
1757698459.053,-73.242,-11.719,-102.539,-29.297,0.000
1757698459.057,-401.855,-32.227,-582.031,-239.746,0.000
1757698459.061,-103.027,-2.930,-352.539,-111.328,0.000
1757698459.065,397.461,30.762,269.531,176.270,0.000
1757698459.068,100.098,2.930,-34.668,60.547,0.000
1757698459.072,-365.723,-24.414,-611.816,-199.219,0.000
1757698459.076,-235.352,-16.113,-531.738,-166.016,0.000
1757698459.080,317.383,32.227,242.676,121.094,0.000
1757698459.084,274.414,18.555,289.062,153.320,0.000
1757698459.088,-281.250,-25.391,-448.730,-134.766,0.000
1757698459.092,-323.242,-12.695,-510.254,-196.289,0.000
1757698459.096,194.336,24.414,133.789,62.012,0.000
1757698459.100,395.996,22.461,341.797,219.727,0.000
1757698459.104,-154.297,-21.484,-390.625,-53.223,0.000
1757698459.108,-379.883,-20.996,-605.957,-221.680,0.000
1757698459.111,11.719,10.742,-88.379,-44.434,0.000
1757698459.115,422.852,14.160,280.762,212.891,0.000
1757698459.119,-12.695,-31.250,-373.535,19.531,0.000
1757698459.123,-398.926,-30.762,-663.086,-218.262,0.000
1757698459.127,-145.020,7.812,-221.191,-124.512,0.000
1757698459.131,389.160,20.996,281.738,173.340,0.000
1757698459.135,147.949,-24.414,-282.715,113.770,0.000
1757698459.139,-366.699,-30.273,-618.164,-182.129,0.000
1757698459.143,-276.855,-6.348,-315.918,-187.012,0.000
1757698459.147,282.715,11.230,194.824,120.605,0.000
1757698459.150,311.035,-7.324,122.070,194.824,0.000
1757698459.154,-255.371,-34.180,-456.055,-111.328,0.000
1757698459.158,-354.004,-15.137,-494.141,-208.496,0.000
1757698459.162,134.277,2.930,-106.445,40.527,0.000
1757698459.166,407.715,-0.488,154.785,228.027,0.000
1757698459.170,-131.348,-14.648,-157.715,-55.664,0.000
1757698459.174,-401.367,-32.227,-550.293,-241.699,0.000
1757698459.178,-46.875,-13.184,-292.480,-83.008,0.000
1757698459.182,393.066,13.672,317.871,179.199,0.000
1757698459.186,6.836,-22.949,-33.203,20.020,0.000
1757698459.190,-406.738,-47.852,-550.293,-227.539,0.000
1757698459.193,-206.055,-27.832,-457.520,-153.809,0.000
1757698459.197,338.867,9.277,213.379,154.785,0.000
1757698459.201,187.500,-3.906,182.129,126.465,0.000
1757698459.205,-341.309,-28.809,-430.176,-160.645,0.000
1757698459.209,-297.363,-35.645,-635.742,-177.734,0.000
1757698459.213,236.328,1.953,16.602,91.309,0.000
1757698459.217,342.773,9.277,334.961,194.336,0.000
1757698459.221,-223.145,-43.945,-339.355,-91.797,0.000
1757698459.225,-381.348,-57.617,-751.465,-201.660,0.000
1757698459.229,90.820,-1.465,-125.488,20.996,0.000
1757698459.233,421.387,14.648,379.883,224.121,0.000
1757698459.236,-81.543,-27.832,-250.000,-9.766,0.000
1757698459.240,-401.367,-30.273,-595.215,-212.402,0.000
1757698459.244,-96.191,-7.324,-258.789,-79.590,0.000
1757698459.248,401.367,6.836,257.324,209.473,0.000
1757698459.252,80.078,-19.531,-86.914,84.473,0.000
1757698459.256,-387.695,-44.434,-605.957,-194.824,0.000
1757698459.260,-237.793,-26.855,-392.578,-166.016,0.000
1757698459.264,315.918,7.324,268.066,131.348,0.000
1757698459.268,260.254,-22.461,103.516,157.715,0.000
1757698459.272,-298.828,-60.059,-521.484,-136.719,0.000
1757698459.275,-344.727,-33.203,-442.383,-208.496,0.000
1757698459.279,176.270,-1.953,133.301,51.270,0.000
1757698459.283,366.699,-19.531,271.484,199.707,0.000
1757698459.287,-193.359,-49.805,-362.793,-82.520,0.000
1757698459.291,-410.645,-41.504,-563.477,-238.770,0.000
1757698459.295,6.348,-20.996,-109.863,-45.410,0.000
1757698459.299,409.668,-20.508,252.441,202.148,0.000
1757698459.303,-62.988,-48.828,-278.809,-15.625,0.000
1757698459.307,-427.246,-43.945,-609.375,-238.770,0.000
1757698459.311,-158.203,-21.484,-305.176,-124.512,0.000
1757698459.315,372.070,-14.160,86.426,185.547,0.000
1757698459.318,127.930,-16.113,-14.648,106.445,0.000
1757698459.322,-373.047,-22.949,-418.945,-191.406,0.000
1757698459.326,-276.855,-18.066,-453.125,-184.082,0.000
1757698459.330,277.344,12.207,122.070,114.258,0.000
1757698459.334,296.875,2.930,283.203,172.363,0.000
1757698459.338,-265.137,-38.574,-343.750,-130.371,0.000
1757698459.342,-363.770,-43.457,-586.426,-224.609,0.000
1757698459.346,111.816,-10.254,-61.523,7.812,0.000
1757698459.350,366.211,-4.395,286.133,185.547,0.000
1757698459.354,-171.875,-35.645,-280.762,-79.590,0.000
1757698459.358,-439.453,-51.758,-660.156,-253.418,0.000
1757698459.361,-78.125,-26.855,-323.242,-83.496,0.000
1757698459.365,366.699,15.625,335.449,163.574,0.000
1757698459.369,-21.484,-20.020,-43.945,-8.789,0.000
1757698459.373,-405.762,-44.434,-603.516,-228.027,0.000
1757698459.377,-207.031,-22.949,-385.254,-152.832,0.000
1757698459.381,288.086,-2.930,305.664,109.375,0.000
1757698459.385,114.746,-35.645,123.047,59.570,0.000
1757698459.389,-407.715,-67.871,-559.082,-223.633,0.000
1757698459.393,-364.258,-51.270,-512.695,-242.676,0.000
1757698459.397,183.105,-24.414,103.516,47.852,0.000
1757698459.401,277.832,-28.809,196.289,159.668,0.000
1757698459.404,-288.086,-67.383,-541.016,-123.535,0.000
1757698459.408,-434.570,-45.410,-609.375,-246.094,0.000
1757698459.412,35.645,2.441,25.879,-32.715,0.000
1757698459.416,379.395,5.371,335.449,187.500,0.000
1757698459.420,-118.652,-28.320,-231.934,-45.410,0.000
1757698459.424,-433.105,-32.715,-551.270,-243.164,0.000
1757698459.428,-115.723,-10.254,-201.172,-97.168,0.000
1757698459.432,384.766,-0.488,298.828,193.848,0.000
1757698459.436,53.223,-26.855,-104.980,67.871,0.000
1757698459.440,-402.344,-40.039,-546.387,-200.195,0.000
1757698459.443,-245.117,-33.203,-378.418,-161.133,0.000
1757698459.447,314.453,-5.371,181.641,147.461,0.000
1757698459.451,233.887,-19.531,-103.027,168.457,0.000
1757698459.455,-314.453,-27.832,-536.133,-138.184,0.000
1757698459.459,-328.125,-16.113,-456.543,-193.359,0.000
1757698459.463,201.660,1.465,24.902,80.566,0.000
1757698459.467,377.441,4.395,300.781,220.215,0.000
1757698459.471,-188.477,-27.832,-274.414,-67.383,0.000
1757698459.475,-389.160,-35.156,-555.176,-219.238,0.000
1757698459.479,37.109,-12.207,-209.473,-16.113,0.000
1757698459.483,422.852,8.301,309.570,224.121,0.000
1757698459.486,-51.270,-23.438,-124.023,6.348,0.000
1757698459.490,-414.551,-51.758,-640.625,-217.285,0.000
1757698459.494,-149.902,-39.551,-513.672,-106.934,0.000
1757698459.498,366.211,8.301,216.797,184.570,0.000
1757698459.502,105.957,-5.371,98.145,92.285,0.000
1757698459.506,-383.301,-46.387,-548.828,-185.547,0.000
1757698459.510,-277.344,-38.574,-461.426,-169.922,0.000
1757698459.514,278.809,5.859,259.277,125.977,0.000
1757698459.518,286.621,-2.930,275.391,181.641,0.000
1757698459.522,-271.973,-45.898,-405.273,-113.770,0.000
1757698459.526,-339.844,-45.898,-625.488,-199.707,0.000
1757698459.529,158.203,-9.277,-76.172,48.340,0.000
1757698459.533,398.438,7.324,337.891,226.074,0.000
1757698459.537,-142.090,-38.574,-358.887,-36.621,0.000
1757698459.541,-397.461,-56.641,-774.414,-204.102,0.000
1757698459.545,-25.391,-5.859,-163.574,-45.410,0.000
1757698459.549,416.016,11.719,384.277,207.520,0.000
1757698459.553,5.371,-32.227,-177.734,34.180,0.000
1757698459.557,-405.762,-43.457,-577.637,-208.008,0.000
1757698459.561,-183.594,-19.043,-307.129,-133.301,0.000
1757698459.565,364.258,2.441,249.512,166.992,0.000
1757698459.569,175.293,-24.902,-16.602,120.605,0.000
1757698459.572,-345.703,-42.969,-531.250,-176.758,0.000
1757698459.576,-286.133,-30.273,-397.461,-194.824,0.000
1757698459.580,252.441,-9.766,208.008,93.262,0.000
1757698459.584,337.891,-29.785,95.215,200.195,0.000
1757698459.588,-228.027,-56.152,-463.867,-97.656,0.000
1757698459.592,-367.676,-38.086,-463.867,-219.238,0.000
1757698459.596,99.121,-13.184,-63.477,15.137,0.000
1757698459.600,417.969,-27.344,102.539,233.398,0.000
1757698459.604,-98.145,-40.039,-231.934,-15.137,0.000
1757698459.608,-409.180,-37.598,-512.207,-215.332,0.000
1757698459.612,-73.730,-22.461,-259.277,-66.895,0.000
1757698459.615,413.086,7.324,310.059,210.449,0.000
1757698459.619,57.129,-16.602,-37.598,62.012,0.000
1757698459.623,-389.648,-43.945,-592.773,-199.707,0.000
1757698459.627,-214.355,-30.273,-468.750,-151.367,0.000
1757698459.631,335.449,0.488,156.738,139.160,0.000
1757698459.635,229.492,-8.789,133.301,146.973,0.000
1757698459.639,-313.965,-28.809,-381.836,-144.043,0.000
1757698459.643,-313.965,-32.715,-567.383,-192.871,0.000
1757698459.647,212.402,-11.719,-122.559,78.613,0.000
1757698459.651,368.164,7.812,294.434,203.613,0.000
1757698459.654,-187.988,-24.902,-284.668,-78.125,0.000
1757698459.658,-380.371,-42.480,-645.020,-216.797,0.000
1757698459.662,49.316,-7.324,-124.512,-13.672,0.000
1757698459.666,434.082,9.766,386.719,225.586,0.000
1757698459.670,-42.969,-28.320,-154.785,11.719,0.000
1757698459.674,-391.113,-47.363,-700.684,-206.055,0.000
1757698459.678,-113.770,-27.344,-396.484,-93.750,0.000
1757698459.682,382.812,-0.488,256.836,191.406,0.000
1757698459.686,103.516,-24.414,-69.824,95.215,0.000
1757698459.690,-369.141,-55.176,-714.844,-166.992,0.000
1757698459.694,-252.441,-24.902,-482.910,-155.273,0.000
1757698459.697,296.387,16.602,293.457,127.441,0.000
1757698459.701,282.715,-7.812,231.445,174.316,0.000
1757698459.705,-265.137,-42.480,-429.199,-122.559,0.000
1757698459.709,-330.566,-32.715,-504.395,-206.543,0.000
1757698459.713,163.574,-0.977,26.367,44.922,0.000
1757698459.717,394.531,2.930,266.113,213.379,0.000
1757698459.721,-152.832,-28.809,-314.453,-58.594,0.000
1757698459.725,-393.555,-42.480,-638.672,-222.656,0.000
1757698459.729,-11.230,-11.230,-172.363,-52.246,0.000
1757698459.733,415.527,7.812,291.992,207.031,0.000
1757698459.737,-12.207,-20.020,-225.098,31.250,0.000
1757698459.740,-410.156,-27.832,-559.082,-209.961,0.000
1757698459.744,-172.363,-2.441,-286.133,-124.023,0.000
1757698459.748,368.164,14.648,198.242,184.082,0.000
1757698459.752,170.410,-5.859,-80.078,136.719,0.000
1757698459.756,-348.633,-9.277,-479.004,-164.062,0.000
1757698459.760,-290.039,-0.488,-416.504,-181.152,0.000
1757698459.764,251.465,20.508,87.891,106.934,0.000
1757698459.768,316.895,16.602,243.652,188.965,0.000
1757698459.772,-239.746,-16.602,-391.602,-107.422,0.000
1757698459.776,-373.535,-22.461,-625.488,-213.867,0.000
1757698459.779,90.820,-5.371,-272.461,22.949,0.000
1757698459.783,401.367,20.020,263.184,218.750,0.000
1757698459.787,-112.793,-3.418,-145.020,-36.621,0.000
1757698459.791,-410.156,-22.461,-663.086,-224.121,0.000
1757698459.795,-71.777,12.207,-219.727,-76.660,0.000
1757698459.799,397.461,37.109,371.094,197.754,0.000
1757698459.803,37.109,4.395,-34.180,55.664,0.000
1757698459.807,-392.578,-21.973,-574.707,-198.242,0.000
1757698459.811,-217.285,-9.277,-440.430,-140.625,0.000
1757698459.815,326.172,26.367,243.652,151.855,0.000
1757698459.819,214.844,5.859,120.117,129.883,0.000
1757698459.822,-322.266,-28.809,-564.453,-169.922,0.000
1757698459.826,-313.965,-13.184,-609.863,-212.891,0.000
1757698459.830,208.496,39.551,208.984,44.434,0.000
1757698459.834,337.891,32.227,372.559,160.645,0.000
1757698459.838,-233.887,-11.230,-364.746,-124.023,0.000
1757698459.842,-421.875,-10.742,-573.242,-270.508,0.000
1757698459.846,2.930,20.020,-106.934,-79.102,0.000
1757698459.850,348.633,43.457,334.473,143.066,0.000
1757698459.854,-146.973,6.348,-253.418,-96.191,0.000
1757698459.858,-499.512,-7.812,-610.352,-327.148,0.000
1757698459.862,-221.680,17.090,-241.699,-208.496,0.000
1757698459.865,281.250,29.297,257.812,71.289,0.000
1757698459.869,-22.461,-11.230,-276.855,-49.316,0.000
1757698459.873,-509.277,-14.160,-637.207,-340.820,0.000
1757698459.877,-379.883,16.113,-310.547,-324.219,0.000
1757698459.881,165.527,32.227,212.402,-32.227,0.000
1757698459.885,121.094,17.578,159.668,-6.348,0.000
1757698459.889,-433.594,-8.301,-398.926,-304.199,0.000
1757698459.893,-489.258,-3.418,-495.117,-377.441,0.000
1757698459.897,20.508,19.531,40.039,-115.723,0.000
1757698459.901,248.535,13.184,260.742,67.871,0.000
1757698459.905,-297.852,-16.602,-372.559,-200.195,0.000
1757698459.908,-522.949,-14.648,-562.500,-360.840,0.000
1757698459.912,-107.422,-1.465,-236.328,-155.273,0.000
1757698459.916,321.289,1.953,112.305,123.047,0.000
1757698459.920,-114.746,-7.324,-85.449,-68.848,0.000
1757698459.924,-484.863,-27.832,-502.441,-306.641,0.000
1757698459.928,-221.680,-21.484,-380.859,-203.613,0.000
1757698459.932,315.430,15.137,265.137,113.770,0.000
1757698459.936,100.098,-4.883,100.586,58.594,0.000
1757698459.940,-394.531,-35.156,-484.863,-216.797,0.000
1757698459.944,-307.617,-36.621,-515.625,-209.473,0.000
1757698459.948,244.629,-8.789,186.035,81.055,0.000
1757698459.951,298.340,-17.578,300.293,166.016,0.000
1757698459.955,-256.836,-55.176,-376.953,-122.070,0.000
1757698459.959,-349.121,-61.523,-659.180,-210.449,0.000
1757698459.963,135.742,-32.227,-138.184,34.668,0.000
1757698459.967,420.898,-8.789,356.934,231.934,0.000
1757698459.971,-96.191,-42.480,-212.891,-16.602,0.000
1757698459.975,-370.605,-66.406,-745.117,-185.059,0.000
1757698459.979,-25.391,-23.926,-225.098,-30.762,0.000
1757698459.983,436.035,3.418,427.246,236.328,0.000
1757698459.987,77.148,-36.621,-93.750,91.309,0.000
1757698459.990,-344.727,-52.734,-565.430,-152.344,0.000
1757698459.994,-153.809,-29.297,-371.582,-84.473,0.000
1757698459.998,395.996,-5.859,214.355,219.238,0.000
1757698460.002,258.789,-26.855,52.734,197.266,0.000
1757698460.006,-271.973,-54.688,-531.250,-102.539,0.000
1757698460.010,-250.977,-41.504,-480.957,-141.602,0.000
1757698460.014,281.250,-10.742,115.234,134.277,0.000
1757698460.018,397.461,-23.438,191.895,250.977,0.000
1757698460.022,-175.293,-56.641,-441.895,-37.109,0.000
1757698460.026,-334.473,-39.062,-518.555,-172.363,0.000
1757698460.030,119.141,-10.254,-39.062,38.574,0.000
1757698460.033,468.750,-9.277,321.777,272.461,0.000
1757698460.037,-13.672,-32.227,-151.367,48.828,0.000
1757698460.041,-343.750,-32.227,-499.512,-163.086,0.000
1757698460.045,-53.711,-20.020,-218.262,-46.387,0.000
1757698460.049,449.219,-6.348,266.113,237.793,0.000
1757698460.053,145.020,-34.180,-99.121,116.699,0.000
1757698460.057,-324.707,-47.852,-526.367,-157.227,0.000
1757698460.061,-199.219,-30.273,-382.324,-125.488,0.000
1757698460.065,348.633,-19.043,32.715,176.270,0.000
1757698460.069,309.570,-14.160,86.426,196.777,0.000
1757698460.073,-247.559,-22.949,-343.750,-112.793,0.000
1757698460.076,-292.480,-30.273,-520.996,-173.828,0.000
1757698460.080,219.238,-10.254,-45.898,82.031,0.000
1757698460.084,412.109,-0.488,333.984,227.051,0.000
1757698460.088,-144.043,-34.668,-249.512,-49.316,0.000
1757698460.092,-366.211,-46.875,-611.328,-206.055,0.000
1757698460.096,38.086,-16.113,-101.562,-11.719,0.000
1757698460.100,448.730,-1.953,330.566,223.633,0.000
1757698460.104,7.812,-21.973,-153.809,22.949,0.000
1757698460.108,-371.094,-42.969,-605.957,-197.754,0.000
1757698460.112,-128.418,-31.250,-462.402,-104.492,0.000
1757698460.115,390.137,19.043,280.762,178.223,0.000
1757698460.119,161.133,-9.277,130.859,107.422,0.000
1757698460.123,-334.473,-49.805,-554.688,-172.363,0.000
1757698460.127,-250.488,-27.344,-450.684,-174.805,0.000
1757698460.131,303.711,12.207,283.203,114.746,0.000
1757698460.135,331.055,-8.301,272.461,185.059,0.000
1757698460.139,-249.023,-47.852,-467.285,-106.934,0.000
1757698460.143,-343.750,-36.621,-587.891,-190.918,0.000
1757698460.147,151.367,-4.395,-41.992,55.176,0.000
1757698460.151,422.363,-7.812,272.461,233.887,0.000
1757698460.155,-109.375,-58.594,-461.426,-29.785,0.000
1757698460.158,-390.137,-42.480,-667.969,-215.820,0.000
1757698460.162,-31.738,3.906,-98.633,-60.059,0.000
1757698460.166,432.617,9.766,340.332,225.098,0.000
1757698460.170,35.156,-27.344,-113.770,66.406,0.000
1757698460.174,-384.766,-37.598,-536.133,-191.895,0.000
1757698460.178,-187.500,-20.508,-349.609,-126.465,0.000
1757698460.182,353.027,-3.906,211.426,168.945,0.000
1757698460.186,213.379,-19.043,47.363,140.625,0.000
1757698460.190,-319.824,-35.645,-480.469,-151.855,0.000
1757698460.194,-293.945,-22.949,-486.328,-170.410,0.000
1757698460.198,250.000,3.906,-12.207,112.305,0.000
1757698460.201,354.492,-8.301,64.941,213.867,0.000
1757698460.205,-208.496,-20.508,-331.543,-83.984,0.000
1757698460.209,-356.445,-18.066,-482.422,-208.008,0.000
1757698460.213,87.402,-4.883,-111.328,11.719,0.000
1757698460.217,421.875,15.137,354.004,230.957,0.000
1757698460.221,-85.938,-21.484,-113.281,-10.254,0.000
1757698460.225,-410.156,-40.527,-550.293,-220.215,0.000
1757698460.229,-92.773,-20.996,-330.566,-89.844,0.000
1757698460.233,383.789,2.930,237.305,187.988,0.000
1757698460.237,81.543,-21.973,-56.152,74.707,0.000
1757698460.241,-377.930,-47.363,-589.355,-197.754,0.000
1757698460.244,-233.887,-39.062,-567.871,-151.367,0.000
1757698460.248,333.008,9.277,188.965,153.320,0.000
1757698460.252,270.020,5.859,273.926,156.738,0.000
1757698460.256,-285.156,-40.039,-403.809,-143.066,0.000
1757698460.260,-323.242,-40.527,-487.793,-204.590,0.000
1757698460.264,192.383,-5.859,129.883,48.828,0.000
1757698460.268,379.395,-4.883,351.074,192.871,0.000
1757698460.272,-174.805,-41.504,-325.195,-78.125,0.000
1757698460.276,-386.230,-48.828,-619.629,-232.910,0.000
1757698460.280,26.367,-20.996,-129.883,-45.410,0.000
1757698460.283,425.293,3.418,383.301,202.148,0.000
1757698460.287,-23.926,-36.621,-233.887,1.465,0.000
1757698460.291,-392.090,-54.199,-688.477,-213.379,0.000
1757698460.295,-136.230,-16.602,-314.941,-113.281,0.000
1757698460.299,391.113,19.043,290.039,167.969,0.000
1757698460.303,139.648,-19.531,-12.695,93.262,0.000
1757698460.307,-360.352,-47.852,-511.230,-185.059,0.000
1757698460.311,-267.578,-25.879,-355.957,-186.523,0.000
1757698460.315,278.320,5.371,255.859,103.027,0.000
1757698460.319,302.246,-16.113,180.664,166.016,0.000
1757698460.323,-253.418,-43.457,-396.484,-127.441,0.000
1757698460.326,-348.633,-30.762,-472.656,-216.797,0.000
1757698460.330,132.812,-4.395,27.344,17.090,0.000
1757698460.334,383.301,-16.602,226.074,196.289,0.000
1757698460.338,-148.438,-41.016,-322.266,-57.129,0.000
1757698460.342,-406.738,-33.203,-520.996,-240.723,0.000
1757698460.346,-49.316,-23.926,-188.477,-80.566,0.000
1757698460.350,405.762,-23.438,130.371,205.078,0.000
1757698460.354,5.859,-31.738,-120.117,39.062,0.000
1757698460.358,-401.855,-36.621,-479.492,-218.262,0.000
1757698460.362,-181.641,-31.250,-382.324,-136.719,0.000
1757698460.366,342.285,-7.324,252.441,155.273,0.000
1757698460.369,169.434,-24.902,105.957,111.816,0.000
1757698460.373,-350.586,-53.223,-515.137,-167.969,0.000
1757698460.377,-301.270,-34.668,-541.504,-190.918,0.000
1757698460.381,245.605,0.000,6.348,93.750,0.000
1757698460.385,328.613,-1.465,231.445,193.848,0.000
1757698460.389,-231.934,-23.926,-286.621,-111.816,0.000
1757698460.393,-365.234,-38.086,-626.465,-210.938,0.000
1757698460.397,76.172,-16.113,-217.773,18.066,0.000
1757698460.401,321.777,4.883,267.578,174.805,0.000
1757698460.405,-144.043,-37.598,-255.371,-40.527,0.000
1757698460.409,-404.785,-47.852,-684.570,-208.008,0.000
1757698460.412,-96.680,-17.090,-248.535,-85.938,0.000
1757698460.416,404.297,8.301,384.277,196.777,0.000
1757698460.420,72.754,-25.391,-32.227,67.383,0.000
1757698460.424,-385.742,-56.152,-648.438,-203.613,0.000
1757698460.428,-233.887,-39.062,-510.254,-158.691,0.000
1757698460.432,315.430,-2.441,217.773,143.555,0.000
1757698460.436,227.539,-18.066,195.801,144.531,0.000
1757698460.440,-320.312,-61.035,-605.469,-142.578,0.000
1757698460.444,-341.797,-35.156,-572.754,-202.637,0.000
1757698460.448,193.359,6.348,156.250,50.781,0.000
1757698460.451,363.770,-9.766,284.180,194.824,0.000
1757698460.455,-200.195,-49.316,-331.543,-88.379,0.000
1757698460.459,-407.227,-51.270,-595.215,-235.840,0.000
1757698460.463,11.719,-28.809,-140.137,-41.992,0.000
1757698460.467,410.156,-14.160,306.152,187.988,0.000
1757698460.471,-64.941,-41.504,-221.191,-27.832,0.000
1757698460.475,-415.527,-56.152,-636.230,-247.070,0.000
1757698460.479,-146.973,-30.273,-319.824,-139.160,0.000
1757698460.483,379.883,-11.719,210.449,177.734,0.000
1757698460.487,118.164,-45.410,-258.301,83.984,0.000
1757698460.491,-370.117,-41.992,-564.941,-212.891,0.000
1757698460.494,-276.855,-29.785,-370.605,-180.664,0.000
1757698460.498,265.625,-12.207,163.086,133.301,0.000
1757698460.502,276.367,-20.020,225.586,181.641,0.000
1757698460.506,-268.066,-39.551,-362.305,-127.930,0.000
1757698460.510,-331.055,-29.785,-524.414,-205.078,0.000
1757698460.514,176.270,-7.812,-88.379,57.617,0.000
1757698460.518,428.711,1.953,243.164,235.352,0.000
1757698460.522,-110.840,-24.902,-309.082,-19.531,0.000
1757698460.526,-360.352,-28.320,-627.930,-184.570,0.000
1757698460.530,19.531,-13.672,-400.879,-34.180,0.000
1757698460.534,456.055,18.066,230.957,209.473,0.000
1757698460.537,41.992,4.395,-14.160,50.293,0.000
1757698460.541,-348.145,-22.949,-557.129,-171.387,0.000
1757698460.545,-121.582,-6.836,-350.586,-97.656,0.000
1757698460.549,430.664,27.344,326.172,205.078,0.000
1757698460.553,159.668,3.906,10.742,104.492,0.000
1757698460.557,25.879,-6.836,-125.977,25.391,0.000
1757698460.561,111.816,-6.836,-12.207,76.172,0.000
1757698460.565,-320.801,-21.973,-555.664,-174.805,0.000
1757698460.569,-155.273,0.000,-448.242,-126.953,0.000
1757698460.573,405.762,34.180,257.812,182.129,0.000
1757698460.577,253.418,12.695,138.672,146.484,0.000
1757698460.580,-285.645,-28.320,-598.145,-127.930,0.000
1757698460.584,-270.508,-2.930,-498.047,-164.551,0.000
1757698460.588,243.652,35.156,200.684,98.145,0.000
1757698460.592,350.098,9.766,185.547,200.684,0.000
1757698460.596,-221.680,-29.297,-465.332,-80.566,0.000
1757698460.600,-357.910,-8.789,-525.391,-202.148,0.000
1757698460.604,87.402,13.672,-26.367,-5.371,0.000
1757698460.608,407.227,8.789,279.785,219.238,0.000
1757698460.612,-70.312,-22.949,-299.316,-10.742,0.000
1757698460.616,-393.066,-34.180,-615.234,-215.820,0.000
1757698460.620,-89.355,-5.371,-260.742,-83.008,0.000
1757698460.623,411.133,6.348,145.508,195.312,0.000
1757698460.627,98.145,-19.531,-200.684,90.332,0.000
1757698460.631,-386.719,-20.508,-509.766,-182.617,0.000
1757698460.635,-243.652,-14.160,-404.297,-169.922,0.000
1757698460.639,310.547,13.184,237.305,120.117,0.000
1757698460.643,237.793,-3.418,139.648,152.832,0.000
1757698460.647,-328.613,-33.691,-479.492,-151.367,0.000
1757698460.651,-366.211,-23.438,-524.414,-215.332,0.000
1757698460.655,160.156,9.277,12.695,49.316,0.000
1757698460.659,347.168,8.789,274.902,189.453,0.000
1757698460.662,-208.984,-42.480,-363.281,-73.730,0.000
1757698460.666,-405.762,-46.387,-590.332,-222.656,0.000
1757698460.670,-12.207,-24.902,-311.035,-41.992,0.000
1757698460.674,390.625,-0.488,213.379,200.684,0.000
1757698460.678,-37.598,-15.625,-29.785,2.441,0.000
1757698460.682,-422.363,-46.387,-584.473,-233.398,0.000
1757698460.686,-163.574,-35.645,-371.094,-120.605,0.000
1757698460.690,374.512,10.742,352.539,184.570,0.000
1757698460.694,143.555,-5.859,116.211,97.656,0.000
1757698460.698,-370.117,-45.410,-589.355,-207.520,0.000
1757698460.702,-292.969,-29.297,-520.020,-201.172,0.000
1757698460.705,272.949,14.160,229.004,103.516,0.000
1757698460.709,287.598,-2.441,221.191,161.133,0.000
1757698460.713,-292.480,-50.781,-538.086,-129.883,0.000
1757698460.717,-379.883,-49.316,-668.457,-210.938,0.000
1757698460.721,103.027,6.348,49.805,12.207,0.000
1757698460.725,357.910,1.465,361.816,201.660,0.000
1757698460.729,-172.852,-48.828,-295.898,-47.852,0.000
1757698460.733,-427.734,-44.922,-602.539,-224.121,0.000
1757698460.737,-69.336,-14.648,-131.836,-63.477,0.000
1757698460.741,387.207,6.348,354.980,190.430,0.000
1757698460.745,6.836,-17.578,-73.730,31.738,0.000
1757698460.748,-421.875,-28.320,-510.254,-216.309,0.000
1757698460.752,-202.148,-11.230,-293.457,-139.648,0.000
1757698460.756,347.656,5.859,268.066,157.227,0.000
1757698460.760,172.852,-24.414,-52.246,123.535,0.000
1757698460.764,-367.676,-35.156,-584.961,-166.992,0.000
1757698460.768,-325.684,-7.324,-416.504,-204.590,0.000
1757698460.772,207.031,4.395,145.508,69.824,0.000
1757698460.776,291.016,-10.254,234.863,174.805,0.000
1757698460.780,-284.668,-40.039,-332.520,-127.930,0.000
1757698460.784,-418.457,-39.551,-544.922,-251.953,0.000
1757698460.788,43.457,-16.113,-138.672,-24.414,0.000
1757698460.791,383.301,-2.441,317.871,192.871,0.000
1757698460.795,-114.258,-24.902,-122.559,-46.387,0.000
1757698460.799,-389.160,-38.574,-499.512,-226.562,0.000
1757698460.803,-53.711,-37.598,-385.254,-64.941,0.000
1757698460.807,388.672,-15.625,165.527,193.848,0.000
1757698460.811,66.406,-23.438,86.914,47.852,0.000
1757698460.815,-395.508,-43.945,-500.977,-222.656,0.000
1757698460.819,-234.375,-37.598,-437.012,-153.320,0.000
1757698460.823,315.430,-3.418,246.094,140.625,0.000
1757698460.827,222.656,-8.789,223.145,115.234,0.000
1757698460.831,-336.914,-53.223,-478.027,-176.270,0.000
1757698460.834,-358.398,-43.457,-541.016,-213.867,0.000
1757698460.838,165.039,-2.930,119.141,47.363,0.000
1757698460.842,343.750,-11.230,272.949,181.152,0.000
1757698460.846,-212.891,-52.246,-343.750,-101.074,0.000
1757698460.850,-398.926,-58.594,-622.559,-227.051,0.000
1757698460.854,3.906,-14.160,-120.605,-30.273,0.000
1757698460.858,384.766,13.672,437.500,187.500,0.000
1757698460.862,-28.320,-20.020,-89.355,-13.672,0.000
1757698460.866,-395.996,-47.363,-590.332,-227.539,0.000
1757698460.870,-145.020,-23.926,-234.863,-133.301,0.000
1757698460.873,391.113,3.906,412.109,156.738,0.000
1757698460.877,153.320,-33.203,21.484,85.938,0.000
1757698460.881,-367.676,-51.270,-587.891,-195.801,0.000
1757698460.885,-290.039,-28.320,-384.277,-188.965,0.000
1757698460.889,281.738,2.441,274.902,111.328,0.000
1757698460.893,291.016,-13.184,136.230,154.297,0.000
1757698460.897,-291.992,-47.363,-572.754,-143.066,0.000
1757698460.901,-362.305,-33.691,-571.777,-204.590,0.000
1757698460.905,144.043,6.836,46.387,17.578,0.000
1757698460.909,394.043,-0.977,131.348,188.965,0.000
1757698460.913,-138.672,-40.039,-516.602,-45.898,0.000
1757698460.916,-404.297,-18.555,-503.906,-227.051,0.000
1757698460.920,-40.039,7.324,-80.078,-62.988,0.000
1757698460.924,419.434,15.625,364.258,217.773,0.000
1757698460.928,38.086,-12.695,-62.988,45.410,0.000
1757698460.932,-384.277,-21.973,-471.680,-222.656,0.000
1757698460.936,-163.574,-12.207,-305.664,-136.719,0.000
1757698460.940,387.207,1.953,287.598,159.668,0.000
1757698460.944,194.824,-20.996,73.730,110.840,0.000
1757698460.948,-341.797,-41.504,-511.230,-179.688,0.000
1757698460.952,-288.574,-33.203,-445.312,-202.148,0.000
1757698460.956,247.070,-16.602,-70.801,73.730,0.000
1757698460.959,321.289,-11.719,130.859,161.621,0.000
1757698460.963,-239.258,-39.062,-275.879,-129.395,0.000
1757698460.967,-376.465,-54.688,-569.336,-243.164,0.000
1757698460.971,62.012,-29.297,-111.328,-3.418,0.000
1757698460.975,388.672,-9.766,376.953,214.355,0.000
1757698460.979,-103.027,-45.898,-122.559,-26.367,0.000
1757698460.983,-389.160,-55.664,-591.309,-220.215,0.000
1757698460.987,-46.875,-29.785,-251.953,-71.777,0.000
1757698460.991,426.758,-5.859,351.562,211.914,0.000
1757698460.995,82.520,-26.367,-24.902,76.172,0.000
1757698460.999,-381.348,-59.082,-669.434,-193.359,0.000
1757698461.002,-211.914,-39.551,-541.992,-144.531,0.000
1757698461.006,344.238,16.113,296.875,154.785,0.000
1757698461.010,235.840,-9.766,147.461,155.273,0.000
1757698461.014,-326.172,-45.410,-509.277,-138.672,0.000
1757698461.018,-333.496,-40.039,-489.258,-204.102,0.000
1757698461.022,192.383,-10.254,119.141,41.504,0.000
1757698461.026,342.285,-15.137,286.133,187.012,0.000
1757698461.030,-228.027,-50.781,-342.773,-89.844,0.000
1757698461.034,-395.508,-44.434,-546.875,-229.004,0.000
1757698461.038,34.180,-19.531,-95.703,-27.344,0.000
1757698461.042,407.715,-8.789,353.516,214.355,0.000
1757698461.045,-45.410,-50.781,-223.145,12.695,0.000
1757698461.049,-394.531,-44.922,-594.238,-207.031,0.000
1757698461.053,-116.699,-6.348,-190.918,-90.332,0.000
1757698461.057,407.715,8.789,352.539,207.031,0.000
1757698461.061,144.531,-16.602,47.363,116.211,0.000
1757698461.065,-357.910,-41.992,-536.133,-166.504,0.000
1757698461.069,-245.117,-21.973,-406.738,-150.879,0.000
1757698461.073,321.289,0.977,182.129,141.602,0.000
1757698461.077,300.293,-17.578,157.715,176.758,0.000
1757698461.081,-284.180,-34.668,-407.715,-125.488,0.000
1757698461.085,-343.750,-32.227,-581.543,-198.730,0.000
1757698461.088,157.715,-16.113,-146.484,39.551,0.000
1757698461.092,387.695,-8.301,148.926,208.008,0.000
1757698461.096,-146.484,-16.602,-235.840,-53.223,0.000
1757698461.100,-381.348,-29.785,-519.531,-225.098,0.000
1757698461.104,1.953,-11.719,-210.449,-50.293,0.000
1757698461.108,431.641,11.719,333.496,213.867,0.000
1757698461.112,20.996,-28.809,-59.082,32.715,0.000
1757698461.116,-388.184,-52.246,-597.656,-222.168,0.000
1757698461.120,-164.551,-25.391,-406.738,-137.695,0.000
1757698461.124,380.859,10.742,278.320,158.203,0.000
1757698461.128,185.059,-8.789,160.645,106.445,0.000
1757698461.131,-345.703,-44.922,-544.434,-182.129,0.000
1757698461.135,-290.039,-37.109,-554.199,-192.871,0.000
1757698461.139,250.488,5.371,152.832,88.379,0.000
1757698461.143,317.383,1.465,297.363,178.223,0.000
1757698461.147,-233.398,-43.945,-377.441,-87.891,0.000
1757698461.151,-355.469,-45.898,-628.906,-195.312,0.000
1757698461.155,86.914,2.930,-41.504,-10.742,0.000
1757698461.159,394.043,19.531,400.391,176.758,0.000
1757698461.163,-99.609,-22.461,-219.727,-34.180,0.000
1757698461.167,-394.531,-29.297,-651.855,-222.168,0.000
1757698461.171,-60.059,5.859,-103.516,-93.262,0.000
1757698461.174,420.410,25.879,449.707,184.082,0.000
1757698461.178,78.613,-19.043,-134.277,53.711,0.000
1757698461.182,-373.047,-43.457,-713.379,-215.820,0.000
1757698461.186,-222.168,-11.719,-385.742,-183.105,0.000
1757698461.190,320.312,16.113,341.797,112.793,0.000
1757698461.194,214.355,-26.367,-1.465,117.676,0.000
1757698461.198,-339.844,-55.176,-688.477,-172.363,0.000
1757698461.202,-353.027,-23.438,-452.148,-229.492,0.000
1757698461.206,185.547,-2.930,69.824,39.062,0.000
1757698461.210,342.285,-5.859,237.305,181.152,0.000
1757698461.214,-221.191,-31.250,-306.152,-97.168,0.000
1757698461.217,-398.926,-30.273,-505.371,-228.027,0.000
1757698461.221,35.645,-9.766,-54.688,-24.414,0.000
1757698461.225,417.480,-5.859,321.289,209.473,0.000
1757698461.229,-56.152,-32.715,-152.344,-7.324,0.000
1757698461.233,-411.133,-43.945,-549.316,-231.934,0.000
1757698461.237,-124.512,-23.438,-289.062,-112.793,0.000
1757698461.241,395.996,-7.324,202.148,188.477,0.000
1757698461.245,124.023,-18.066,-13.672,81.543,0.000
1757698461.249,-367.676,-30.273,-448.242,-206.543,0.000
1757698461.253,-254.395,-30.273,-443.848,-174.316,0.000
1757698461.257,298.828,0.000,162.109,116.699,0.000
1757698461.260,263.184,-4.883,237.305,141.602,0.000
1757698461.264,-296.875,-36.621,-367.676,-149.902,0.000
1757698461.268,-350.098,-44.922,-572.754,-217.285,0.000
1757698461.272,148.438,-19.043,-95.215,28.809,0.000
1757698461.276,372.559,3.418,268.066,196.289,0.000
1757698461.280,-170.898,-22.949,-235.352,-75.684,0.000
1757698461.284,-400.391,-57.129,-675.293,-233.887,0.000
1757698461.288,-8.789,-30.762,-336.914,-50.781,0.000
1757698461.292,410.156,16.113,387.207,187.012,0.000
1757698461.296,-9.766,-15.625,-12.207,8.301,0.000
1757698461.300,-407.715,-48.340,-588.379,-231.445,0.000
1757698461.303,-160.645,-24.902,-347.168,-141.602,0.000
1757698461.307,382.324,13.672,354.492,156.738,0.000
1757698461.311,166.504,-16.602,126.953,89.355,0.000
1757698461.315,-365.234,-46.387,-560.059,-198.730,0.000
1757698461.319,-297.363,-34.180,-527.832,-196.777,0.000
1757698461.323,260.742,0.977,185.059,82.520,0.000
1757698461.327,301.270,-8.789,224.609,151.367,0.000
1757698461.331,-274.414,-54.688,-516.113,-128.418,0.000
1757698461.335,-381.348,-36.621,-563.965,-230.469,0.000
1757698461.339,98.633,9.277,62.988,1.953,0.000
1757698461.342,395.996,-3.418,270.020,204.590,0.000
1757698461.346,-120.605,-45.410,-341.309,-46.387,0.000
1757698461.350,-387.695,-30.762,-540.039,-227.051,0.000
1757698461.354,-21.973,-5.859,-96.191,-52.734,0.000
1757698461.358,425.293,-2.441,323.730,218.262,0.000
1757698461.362,41.016,-37.109,-122.070,52.734,0.000
1757698461.366,-397.949,-57.129,-568.848,-214.844,0.000
1757698461.370,-211.426,-33.203,-364.258,-163.086,0.000
1757698461.374,340.332,-19.531,124.023,145.996,0.000
1757698461.378,199.707,-45.410,-87.402,131.348,0.000
1757698461.382,-359.375,-48.828,-467.773,-181.641,0.000
1757698461.385,-348.145,-41.992,-472.168,-220.703,0.000
1757698461.389,185.547,-24.902,83.496,56.152,0.000
1757698461.393,311.035,-34.180,200.684,173.340,0.000
1757698461.397,-257.324,-61.523,-391.602,-108.398,0.000
1757698461.401,-416.992,-64.453,-581.055,-230.957,0.000
1757698461.405,22.949,-35.156,-110.352,-27.344,0.000
1757698461.409,387.695,-13.184,376.953,201.660,0.000
1757698461.413,-81.543,-44.434,-163.086,-7.324,0.000
1757698461.417,-421.387,-56.641,-610.352,-215.820,0.000
1757698461.421,-114.258,-35.645,-416.504,-86.914,0.000
1757698461.425,401.855,1.465,272.949,191.406,0.000
1757698461.428,103.027,-15.625,113.281,79.590,0.000
1757698461.432,-374.023,-49.316,-568.359,-187.012,0.000
1757698461.436,-243.164,-39.551,-484.375,-161.621,0.000
1757698461.440,306.152,3.418,245.117,129.883,0.000
1757698461.444,259.766,-11.719,228.516,158.691,0.000
1757698461.448,-304.199,-56.641,-495.605,-131.836,0.000
1757698461.452,-351.562,-43.945,-615.234,-195.312,0.000
1757698461.456,160.156,-6.836,27.832,55.664,0.000
1757698461.460,359.375,-14.160,251.465,206.055,0.000
1757698461.464,-192.871,-63.477,-457.520,-65.918,0.000
1757698461.468,-396.973,-61.523,-740.234,-212.891,0.000
1757698461.471,2.930,-7.812,-93.262,-39.062,0.000
1757698461.475,428.711,3.418,408.203,213.379,0.000
1757698461.479,2.441,-36.621,-111.328,30.762,0.000
1757698461.483,-385.742,-44.434,-536.621,-210.449,0.000
1757698461.487,-130.371,-23.438,-352.051,-117.188,0.000
1757698461.491,405.762,-2.441,216.309,184.082,0.000
1757698461.495,181.641,-20.508,37.109,113.281,0.000
1757698461.499,-341.797,-41.992,-502.441,-175.781,0.000
1757698461.503,-279.297,-35.645,-447.754,-181.152,0.000
1757698461.507,269.531,-13.672,152.832,101.562,0.000
1757698461.511,304.688,-31.738,-11.719,181.152,0.000
1757698461.514,-269.531,-45.898,-589.355,-113.281,0.000
1757698461.518,-369.141,-20.996,-468.750,-220.215,0.000
1757698461.522,107.910,-5.859,-35.156,12.207,0.000
1757698461.526,391.602,-7.324,308.105,206.543,0.000
1757698461.530,-128.906,-33.691,-179.199,-53.711,0.000
1757698461.534,-398.438,-34.180,-529.297,-238.770,0.000
1757698461.538,-41.992,-14.648,-222.168,-67.871,0.000
1757698461.542,421.387,8.789,320.801,208.008,0.000
1757698461.546,62.012,-7.812,-21.973,63.477,0.000
1757698461.550,-378.906,-37.109,-533.691,-200.195,0.000
1757698461.554,-199.707,-48.828,-535.156,-145.508,0.000
1757698461.557,346.680,-20.508,28.809,158.203,0.000
1757698461.561,198.242,-8.301,203.613,122.070,0.000
1757698461.565,-344.238,-42.969,-438.965,-176.758,0.000
1757698461.569,-321.777,-43.457,-530.762,-202.637,0.000
1757698461.573,223.145,0.000,134.277,66.406,0.000
1757698461.577,336.426,1.953,281.250,166.504,0.000
1757698461.581,-245.605,-45.410,-381.836,-112.793,0.000
1757698461.585,-397.949,-45.410,-614.258,-234.863,0.000
1757698461.589,62.988,-7.812,-62.988,-32.715,0.000
1757698461.593,399.902,-1.953,399.902,186.035,0.000
1757698461.597,-98.633,-42.480,-134.766,-31.250,0.000
1757698461.600,-418.457,-62.012,-624.023,-232.422,0.000
1757698461.604,-103.516,-31.250,-266.602,-102.539,0.000
1757698461.608,396.484,0.977,386.719,181.641,0.000
1757698461.612,86.426,-37.598,-11.719,68.359,0.000
1757698461.616,-384.277,-57.129,-623.047,-198.242,0.000
1757698461.620,-241.211,-27.832,-402.832,-166.992,0.000
1757698461.624,313.965,0.977,262.695,125.000,0.000
1757698461.628,250.977,-26.367,101.074,143.066,0.000
1757698461.632,-317.871,-55.664,-550.781,-151.367,0.000
1757698461.636,-351.562,-35.156,-468.750,-220.703,0.000
1757698461.640,162.109,-8.789,118.164,30.273,0.000
1757698461.643,339.355,-23.438,213.867,176.270,0.000
1757698461.647,-214.355,-62.988,-447.754,-99.121,0.000
1757698461.651,-414.551,-51.758,-595.703,-249.512,0.000
1757698461.655,4.395,-8.789,-19.531,-58.594,0.000
1757698461.659,418.457,-12.695,190.430,207.031,0.000
1757698461.663,-31.738,-49.805,-389.160,21.484,0.000
1757698461.667,-420.410,-32.227,-491.699,-224.121,0.000
1757698461.671,-141.113,-13.672,-227.539,-106.445,0.000
1757698461.675,368.164,5.371,264.160,162.109,0.000
1757698461.679,122.559,-15.137,-55.664,61.523,0.000
1757698461.683,-357.910,-32.227,-529.785,-184.570,0.000
1757698461.686,-279.785,-18.555,-425.781,-174.316,0.000
1757698461.690,280.762,7.324,177.734,112.305,0.000
1757698461.694,296.875,-5.371,148.438,162.109,0.000
1757698461.698,-274.902,-28.320,-456.055,-134.277,0.000
1757698461.702,-354.980,-18.555,-505.371,-216.797,0.000
1757698461.706,136.719,-4.395,-218.262,33.691,0.000
1757698461.710,397.461,7.812,203.613,210.938,0.000
1757698461.714,-140.137,-20.508,-131.836,-57.129,0.000
1757698461.718,-401.367,-40.527,-607.422,-231.934,0.000
1757698461.722,-27.832,-10.742,-182.129,-69.336,0.000
1757698461.726,430.176,20.020,425.293,199.219,0.000
1757698461.729,41.992,-11.719,20.996,41.504,0.000
1757698461.733,-389.160,-43.945,-571.777,-206.543,0.000
1757698461.737,-180.176,-25.879,-480.957,-136.719,0.000
1757698461.741,369.141,14.648,215.820,159.668,0.000
1757698461.745,201.660,-1.953,130.371,118.164,0.000
1757698461.749,-338.867,-44.434,-594.238,-170.410,0.000
1757698461.753,-301.270,-36.133,-638.184,-183.105,0.000
1757698461.757,238.281,20.020,196.289,79.590,0.000
1757698461.761,338.867,7.324,257.324,174.316,0.000
1757698461.765,-227.539,-35.645,-432.129,-105.469,0.000
1757698461.769,-366.211,-34.668,-611.328,-215.332,0.000
1757698461.772,92.773,2.930,-79.590,-3.906,0.000
1757698461.776,425.781,17.090,355.957,211.914,0.000
1757698461.780,-73.730,-20.996,-202.637,-12.207,0.000
1757698461.784,-396.973,-28.809,-557.617,-221.191,0.000
1757698461.788,-80.078,-11.230,-288.574,-86.914,0.000
1757698461.792,412.598,6.348,269.531,188.477,0.000
1757698461.796,88.379,-28.809,-130.859,67.871,0.000
1757698461.800,-387.695,-36.621,-604.980,-199.219,0.000
1757698461.804,-226.074,-3.906,-353.516,-164.062,0.000
1757698461.808,339.355,9.766,221.191,132.324,0.000
1757698461.811,247.070,-14.160,190.430,130.859,0.000
1757698461.815,-321.289,-36.133,-399.902,-173.340,0.000
1757698461.819,-342.773,-28.320,-464.355,-222.168,0.000
1757698461.823,175.781,-5.371,51.758,45.898,0.000
1757698461.827,350.586,-9.766,251.465,182.617,0.000
1757698461.831,-207.031,-44.434,-296.387,-94.238,0.000
1757698461.835,-409.180,-55.664,-576.172,-238.770,0.000
1757698461.839,5.859,-39.062,-255.859,-48.340,0.000
1757698461.843,405.762,-14.648,235.352,196.777,0.000
1757698461.847,-41.504,-24.902,-57.617,-4.883,0.000
1757698461.851,-413.086,-44.434,-609.375,-226.562,0.000
1757698461.854,-133.301,-19.531,-395.020,-114.746,0.000
1757698461.858,397.461,13.672,323.242,174.805,0.000
1757698461.862,139.160,-18.066,40.039,89.844,0.000
1757698461.866,-362.793,-45.898,-614.258,-196.777,0.000
1757698461.870,-269.043,-30.762,-472.168,-190.918,0.000
1757698461.874,279.297,2.930,228.027,107.422,0.000
1757698461.878,264.160,-10.254,212.402,147.461,0.000
1757698461.882,-312.012,-49.316,-487.793,-153.320,0.000
1757698461.886,-368.164,-53.711,-691.895,-214.844,0.000
1757698461.890,128.418,-9.277,-95.703,20.020,0.000
1757698461.894,379.395,8.789,349.609,189.941,0.000
1757698461.897,-156.738,-40.039,-278.809,-59.570,0.000
1757698461.901,-405.273,-44.922,-616.699,-229.004,0.000
1757698461.905,-32.715,-10.254,-118.652,-62.012,0.000
1757698461.909,404.785,8.301,439.453,190.918,0.000
1757698461.913,8.789,-31.738,-94.238,23.926,0.000
1757698461.917,-408.691,-54.199,-643.066,-222.656,0.000
1757698461.921,-185.547,-26.855,-338.379,-152.344,0.000
1757698461.925,358.887,2.441,330.078,145.996,0.000
1757698461.929,181.152,-35.645,-29.297,111.816,0.000
1757698461.933,-357.422,-55.664,-704.590,-173.340,0.000
1757698461.936,-311.035,-11.230,-440.430,-197.754,0.000
1757698461.940,237.305,11.230,191.895,79.590,0.000
1757698461.944,306.641,-7.812,160.645,176.270,0.000
1757698461.948,-267.090,-37.109,-450.684,-114.258,0.000
1757698461.952,-391.602,-29.785,-540.527,-224.121,0.000
1757698461.956,70.801,-8.301,-90.332,-4.883,0.000
1757698461.960,396.484,-5.859,266.602,201.172,0.000
1757698461.964,-101.562,-34.668,-229.980,-31.738,0.000
1757698461.968,-404.785,-40.039,-548.828,-228.516,0.000
1757698461.972,-74.707,-23.438,-148.438,-87.402,0.000
1757698461.976,409.180,-12.207,320.801,192.383,0.000
1757698461.979,67.871,-37.598,-80.078,55.664,0.000
1757698461.983,-386.230,-41.016,-500.977,-205.566,0.000
1757698461.987,-221.680,-27.832,-410.156,-154.785,0.000
1757698461.991,329.102,-10.254,158.203,145.996,0.000
1757698461.995,223.145,-14.160,174.316,136.719,0.000
1757698461.999,-337.891,-42.480,-392.090,-168.945,0.000
1757698462.003,-351.562,-49.805,-565.918,-214.355,0.000
1757698462.007,179.688,-19.531,-38.086,49.316,0.000
1757698462.011,325.684,-16.113,278.320,168.457,0.000
1757698462.015,-234.863,-62.500,-350.586,-109.863,0.000
1757698462.019,-397.949,-67.871,-671.387,-228.516,0.000
1757698462.022,19.531,-34.668,-214.355,-34.668,0.000
1757698462.026,404.297,-8.789,355.957,196.289,0.000
1757698462.030,-56.152,-33.203,-54.199,-6.836,0.000
1757698462.034,-410.645,-63.477,-655.273,-218.750,0.000
1757698462.038,-129.395,-41.992,-445.312,-104.492,0.000
1757698462.042,386.230,8.789,345.215,177.246,0.000
1757698462.046,111.328,-24.414,72.266,83.008,0.000
1757698462.050,-379.395,-57.129,-599.121,-192.383,0.000
1757698462.054,-253.418,-30.762,-470.215,-171.875,0.000
1757698462.058,300.293,8.789,260.254,116.699,0.000
1757698462.062,272.461,-9.766,193.359,155.762,0.000
1757698462.066,-292.969,-48.828,-502.930,-134.766,0.000
1757698462.069,-352.539,-41.992,-575.684,-210.938,0.000
1757698462.073,146.973,-6.836,-4.883,25.879,0.000
1757698462.077,392.090,1.465,243.164,190.918,0.000
1757698462.081,-156.738,-42.480,-408.691,-59.082,0.000
1757698462.085,-406.738,-35.645,-610.840,-221.191,0.000
1757698462.089,-21.484,1.953,-67.383,-61.035,0.000
1757698462.093,408.203,2.930,348.633,195.801,0.000
1757698462.097,1.465,-29.785,-129.883,18.555,0.000
1757698462.101,-397.949,-34.180,-513.672,-235.352,0.000
1757698462.105,-157.715,-14.160,-308.105,-144.531,0.000
1757698462.108,390.625,7.812,232.910,168.457,0.000
1757698462.112,187.500,-14.648,36.621,110.840,0.000
1757698462.116,-353.516,-41.992,-565.430,-188.477,0.000
1757698462.120,-301.758,-24.414,-473.633,-198.730,0.000
1757698462.124,249.023,-2.930,52.246,80.078,0.000
1757698462.128,310.059,-14.648,48.828,168.457,0.000
1757698462.132,-262.207,-29.785,-391.602,-121.094,0.000
1757698462.136,-369.629,-22.461,-496.582,-229.980,0.000
1757698462.140,85.938,-11.719,-184.570,5.371,0.000
1757698462.144,387.207,-8.789,99.609,215.332,0.000
1757698462.148,-106.445,-13.672,-208.496,-39.551,0.000
1757698462.151,-404.785,-27.832,-557.129,-247.559,0.000
1757698462.155,-38.086,-10.254,-238.770,-77.637,0.000
1757698462.159,377.930,14.648,262.207,183.105,0.000
1757698462.163,-14.648,-18.066,-174.805,22.461,0.000
1757698462.167,-385.254,-27.832,-593.750,-205.078,0.000
1757698462.171,-215.332,-17.090,-515.625,-152.832,0.000
1757698462.175,339.844,22.461,196.777,136.230,0.000
1757698462.179,222.168,18.066,244.141,120.605,0.000
1757698462.183,-335.938,-30.273,-466.797,-171.387,0.000
1757698462.187,-340.332,-23.926,-519.043,-220.703,0.000
1757698462.191,183.105,13.672,135.742,45.410,0.000
1757698462.194,322.754,6.348,307.617,173.828,0.000
1757698462.198,-240.234,-37.598,-391.602,-104.980,0.000
1757698462.202,-407.227,-36.133,-644.043,-232.422,0.000
1757698462.206,22.949,1.953,-76.660,-32.227,0.000
1757698462.210,398.438,4.883,349.609,193.848,0.000
1757698462.214,-57.617,-44.922,-271.973,-11.719,0.000
1757698462.218,-407.227,-47.363,-740.234,-214.355,0.000
1757698462.222,-118.652,5.859,-195.801,-101.074,0.000
1757698462.226,404.785,24.414,393.066,187.988,0.000
1757698462.230,114.746,-15.137,19.043,90.332,0.000
1757698462.233,-387.207,-36.133,-518.066,-189.941,0.000
1757698462.237,-264.648,-23.438,-434.082,-164.551,0.000
1757698462.241,295.410,5.371,192.383,131.836,0.000
1757698462.245,261.230,-7.812,131.348,161.621,0.000
1757698462.249,-316.406,-36.133,-445.801,-149.414,0.000
1757698462.253,-338.379,-29.785,-506.348,-209.961,0.000
1757698462.257,190.430,-2.930,8.789,38.574,0.000
1757698462.261,376.465,-12.207,70.801,184.082,0.000
1757698462.265,-177.246,-37.598,-504.883,-77.637,0.000
1757698462.269,-395.020,-25.879,-512.207,-237.305,0.000
1757698462.273,3.418,-11.719,-132.324,-50.293,0.000
1757698462.276,426.758,0.000,337.402,215.332,0.000
1757698462.280,9.277,-21.484,-56.641,41.016,0.000
1757698462.284,-391.113,-34.180,-513.184,-203.125,0.000
1757698462.288,-160.156,-23.438,-388.184,-121.094,0.000
1757698462.292,369.629,1.953,230.469,172.363,0.000
1757698462.296,164.551,-14.160,75.195,112.793,0.000
1757698462.300,-351.074,-40.039,-504.883,-176.758,0.000
1757698462.304,-279.297,-36.621,-591.797,-181.152,0.000
1757698462.308,270.508,3.418,-63.965,106.934,0.000
1757698462.312,309.570,23.438,257.812,173.340,0.000
1757698462.316,-262.207,-10.254,-354.492,-122.070,0.000
1757698462.319,-372.559,-21.973,-569.336,-221.191,0.000
1757698462.323,106.934,11.719,-12.207,3.418,0.000
1757698462.327,366.699,18.555,304.199,174.316,0.000
1757698462.331,-167.969,-32.227,-348.145,-74.707,0.000
1757698462.335,-403.320,-36.621,-638.184,-233.398,0.000
1757698462.339,-52.246,-5.371,-136.230,-84.473,0.000
1757698462.343,417.969,10.742,434.570,185.547,0.000
1757698462.347,54.688,-29.785,-30.273,43.945,0.000
1757698462.351,-392.578,-54.199,-639.160,-208.008,0.000
1757698462.355,-208.496,-27.832,-466.797,-151.855,0.000
1757698462.359,340.332,12.695,250.488,141.602,0.000
1757698462.362,206.055,-12.695,130.371,120.117,0.000
1757698462.366,-340.332,-57.617,-619.141,-170.898,0.000
1757698462.370,-326.660,-25.391,-509.277,-206.055,0.000
1757698462.374,213.379,13.672,203.613,60.059,0.000
1757698462.378,354.492,-6.836,192.871,196.777,0.000
1757698462.382,-201.172,-40.527,-460.449,-74.219,0.000
1757698462.386,-382.812,-31.250,-552.246,-229.492,0.000
1757698462.390,42.969,-1.465,-35.645,-43.457,0.000
1757698462.394,415.527,-0.488,279.785,188.477,0.000
1757698462.398,-67.383,-33.691,-315.918,-22.949,0.000
1757698462.402,-407.227,-26.855,-590.332,-235.840,0.000
1757698462.405,-102.051,6.836,-176.758,-117.188,0.000
1757698462.409,406.738,12.695,182.129,177.246,0.000
1757698462.413,107.910,-13.184,-220.215,72.754,0.000
1757698462.417,-380.371,-8.789,-485.352,-216.309,0.000
1757698462.421,-245.117,-1.465,-384.277,-187.012,0.000
1757698462.425,312.988,16.113,174.316,113.770,0.000
1757698462.429,254.395,7.812,171.387,141.113,0.000
1757698462.433,-301.270,-12.695,-387.207,-154.297,0.000
1757698462.437,-341.797,-11.719,-514.160,-217.285,0.000
1757698462.441,169.434,10.742,5.859,33.203,0.000
1757698462.445,379.395,9.277,258.789,187.988,0.000
1757698462.448,-176.270,-17.578,-309.570,-77.637,0.000
1757698462.452,-390.625,-15.625,-527.344,-223.633,0.000
1757698462.456,7.324,-4.883,-373.535,-31.250,0.000
1757698462.460,417.969,21.484,195.801,215.332,0.000
1757698462.464,-5.371,-5.371,-44.922,22.949,0.000
1757698462.468,-383.789,-30.762,-638.672,-206.055,0.000
1757698462.472,-131.836,-3.906,-361.328,-111.816,0.000
1757698462.476,399.902,28.320,335.449,180.176,0.000
