timestamps,TP9,AF7,AF8,TP10,Right AUX
1757709998.310,-35.645,-1000.000,-331.055,-40.527,0.000
1757709998.314,33.203,-1000.000,-258.789,7.324,0.000
1757709998.318,16.602,-1000.000,-492.676,52.246,0.000
1757709998.322,-69.824,-1000.000,-653.320,-5.371,0.000
1757709998.326,-66.406,-1000.000,-412.109,-64.941,0.000
1757709998.330,9.766,-1000.000,-337.402,-23.438,0.000
1757709998.334,22.461,-1000.000,-542.480,47.363,0.000
1757709998.338,-60.059,-1000.000,-724.121,17.578,0.000
1757709998.342,-86.426,-1000.000,-457.520,-55.664,0.000
1757709998.346,-5.371,-1000.000,-268.555,-23.438,0.000
1757709998.349,20.020,-1000.000,-383.789,22.461,0.000
1757709998.353,-45.410,-1000.000,-543.457,23.438,0.000
1757709998.357,-102.051,-1000.000,-446.289,-47.363,0.000
1757709998.361,-32.715,-1000.000,-321.777,-27.832,0.000
1757709998.365,29.297,-1000.000,-372.559,22.949,0.000
1757709998.369,-12.695,-1000.000,-421.387,24.902,0.000
1757709998.373,-99.121,-1000.000,-499.512,-41.504,0.000
1757709998.377,-59.570,-1000.000,-437.012,-63.965,0.000
1757709998.381,8.789,-1000.000,-475.098,2.441,0.000
1757709998.385,-3.418,-1000.000,-525.391,42.969,0.000
1757709998.389,-85.449,-1000.000,-444.824,-30.762,0.000
1757709998.392,-73.242,-1000.000,-402.832,-76.660,0.000
1757709998.396,5.859,-1000.000,-367.188,-35.645,0.000
1757709998.400,9.277,-1000.000,-354.492,23.926,0.000
1757709998.404,-69.336,-1000.000,-459.961,6.348,0.000
1757709998.408,-101.074,-1000.000,-509.766,-58.594,0.000
1757709998.412,-22.949,-1000.000,-432.617,-32.227,0.000
1757709998.416,26.367,-1000.000,-363.281,28.809,0.000
1757709998.420,-24.414,-1000.000,-447.754,26.855,0.000
1757709998.424,-111.816,-1000.000,-619.629,-49.316,0.000
1757709998.428,-59.082,-1000.000,-548.828,-31.738,0.000
1757709998.431,6.348,-1000.000,-272.949,6.348,0.000
1757709998.435,-13.672,-1000.000,-394.531,52.734,0.000
1757709998.439,-97.656,-1000.000,-525.391,3.418,0.000
1757709998.443,-73.730,-1000.000,-348.633,-41.992,0.000
1757709998.447,3.906,-1000.000,-250.000,10.254,0.000
1757709998.451,14.160,-1000.000,-420.410,48.340,0.000
1757709998.455,-47.852,-1000.000,-552.246,5.371,0.000
1757709998.459,-62.012,-1000.000,-394.531,-39.551,0.000
1757709998.463,-13.672,-1000.000,-269.043,-29.297,0.000
1757709998.467,12.207,-1000.000,-343.262,16.602,0.000
1757709998.471,-40.039,-1000.000,-562.012,52.734,0.000
1757709998.474,-108.887,-1000.000,-500.000,-40.039,0.000
1757709998.478,-51.270,-1000.000,-247.070,-72.266,0.000
1757709998.482,10.742,-1000.000,-308.105,12.207,0.000
1757709998.486,-34.180,-1000.000,-549.316,29.785,0.000
1757709998.490,-112.305,-1000.000,-454.590,-65.430,0.000
1757709998.494,-62.012,-1000.000,-237.305,-68.848,0.000
1757709998.498,2.930,-1000.000,-320.801,2.930,0.000
1757709998.502,-16.113,-1000.000,-487.305,20.020,0.000
1757709998.506,-97.656,-1000.000,-498.047,-63.965,0.000
1757709998.510,-84.961,-1000.000,-403.320,-88.379,0.000
1757709998.514,-18.555,-1000.000,-391.113,-51.270,0.000
1757709998.517,-10.742,-1000.000,-506.836,-22.461,0.000
1757709998.521,-97.168,-1000.000,-535.645,-42.969,0.000
1757709998.525,-131.836,-1000.000,-360.352,-105.957,0.000
1757709998.529,-51.270,-1000.000,-408.691,-103.516,0.000
1757709998.533,-11.719,-1000.000,-545.898,-18.555,0.000
1757709998.537,-71.289,-1000.000,-449.707,7.812,0.000
1757709998.541,-126.953,-1000.000,-458.496,-76.172,0.000
1757709998.545,-68.848,-1000.000,-382.812,-72.266,0.000
1757709998.549,-4.883,-1000.000,-312.988,-24.902,0.000
1757709998.553,-20.508,-1000.000,-415.039,7.812,0.000
1757709998.557,-104.004,-1000.000,-510.254,-61.035,0.000
1757709998.560,-82.031,-1000.000,-428.711,-80.078,0.000
1757709998.564,-13.184,-1000.000,-394.531,-34.180,0.000
1757709998.568,-22.461,-1000.000,-477.539,27.832,0.000
1757709998.572,-122.559,-1000.000,-565.918,-55.664,0.000
1757709998.576,-134.277,-1000.000,-564.941,-109.375,0.000
1757709998.580,-53.223,-1000.000,-373.535,-20.020,0.000
1757709998.584,-7.324,-1000.000,-302.246,24.414,0.000
1757709998.588,-96.680,-1000.000,-523.926,-14.160,0.000
1757709998.592,-129.395,-1000.000,-512.207,-71.777,0.000
1757709998.596,-37.109,-1000.000,-280.762,-50.293,0.000
1757709998.599,3.418,-1000.000,-294.434,-15.137,0.000
1757709998.603,-61.523,-1000.000,-567.383,-20.020,0.000
1757709998.607,-145.996,-1000.000,-574.707,-84.473,0.000
1757709998.611,-79.102,-1000.000,-366.211,-79.102,0.000
1757709998.615,-4.883,-1000.000,-343.750,-47.852,0.000
1757709998.619,-46.387,-1000.000,-574.707,-4.395,0.000
1757709998.623,-143.066,-1000.000,-655.762,-56.641,0.000
1757709998.627,-131.348,-1000.000,-290.039,-105.957,0.000
1757709998.631,-52.734,-1000.000,-242.188,-46.875,0.000
1757709998.635,-23.926,-1000.000,-393.555,-3.418,0.000
1757709998.639,-137.695,-1000.000,-461.914,-95.703,0.000
1757709998.642,-195.312,-1000.000,-332.031,-175.293,0.000
1757709998.646,-115.234,-1000.000,-275.879,-122.070,0.000
1757709998.650,-82.031,-1000.000,-374.023,-74.219,0.000
1757709998.654,-188.477,-1000.000,-481.445,-121.094,0.000
1757709998.658,-238.770,-1000.000,-477.539,-188.477,0.000
1757709998.662,-161.621,-1000.000,-330.566,-192.383,0.000
1757709998.666,-133.301,-1000.000,-458.008,-147.461,0.000
1757709998.670,-192.871,-1000.000,-530.762,-111.328,0.000
1757709998.674,-259.277,-1000.000,-410.645,-189.453,0.000
1757709998.678,-201.660,-1000.000,-380.371,-189.453,0.000
1757709998.682,-124.512,-1000.000,-312.500,-131.348,0.000
1757709998.685,-132.324,-1000.000,-341.309,-95.703,0.000
1757709998.689,-204.590,-1000.000,-386.719,-152.344,0.000
1757709998.693,-177.246,-1000.000,-389.160,-177.246,0.000
1757709998.697,-116.211,-1000.000,-395.996,-127.441,0.000
1757709998.701,-100.098,-1000.000,-370.605,-80.566,0.000
1757709998.705,-154.297,-1000.000,-487.793,-97.168,0.000
1757709998.709,-153.320,-1000.000,-522.949,-143.555,0.000
1757709998.713,-70.801,-1000.000,-384.277,-101.074,0.000
1757709998.717,-30.762,-1000.000,-237.793,-24.902,0.000
1757709998.721,-84.961,-1000.000,-398.926,-29.785,0.000
1757709998.724,-134.766,-1000.000,-584.473,-74.707,0.000
1757709998.728,-47.363,-1000.000,-511.230,-41.992,0.000
1757709998.732,20.508,-1000.000,-285.156,3.418,0.000
1757709998.736,-18.555,-1000.000,-417.480,18.066,0.000
1757709998.740,-99.121,-1000.000,-488.281,-49.316,0.000
1757709998.744,-44.922,-1000.000,-280.762,-45.410,0.000
1757709998.748,31.250,-1000.000,-268.066,20.020,0.000
1757709998.752,6.348,-1000.000,-448.730,45.898,0.000
1757709998.756,-72.266,-1000.000,-645.020,-18.555,0.000
1757709998.760,-48.340,-1000.000,-473.145,-29.297,0.000
1757709998.764,25.879,-1000.000,-227.051,21.484,0.000
1757709998.767,49.316,-1000.000,-363.770,61.523,0.000
1757709998.771,-19.043,-1000.000,-554.688,26.855,0.000
1757709998.775,-54.688,-1000.000,-430.664,-32.715,0.000
1757709998.779,20.020,-1000.000,-223.145,8.789,0.000
1757709998.783,61.035,-1000.000,-354.980,62.988,0.000
1757709998.787,7.812,-1000.000,-584.961,58.105,0.000
1757709998.791,-44.922,-1000.000,-520.996,-6.348,0.000
1757709998.795,15.137,-1000.000,-322.266,9.766,0.000
1757709998.799,60.059,-1000.000,-456.543,64.453,0.000
1757709998.803,27.832,-1000.000,-673.340,90.332,0.000
1757709998.807,-36.621,-1000.000,-465.332,5.371,0.000
1757709998.810,0.000,-1000.000,-304.688,-16.602,0.000
1757709998.814,65.430,-1000.000,-299.316,51.758,0.000
1757709998.818,55.176,-1000.000,-390.625,94.238,0.000
1757709998.822,-23.926,-1000.000,-473.145,43.457,0.000
1757709998.826,-17.578,-1000.000,-377.441,-7.812,0.000
1757709998.830,45.410,-1000.000,-327.148,31.738,0.000
1757709998.834,71.777,-1000.000,-327.637,84.473,0.000
1757709998.838,13.184,-1000.000,-453.613,61.523,0.000
1757709998.842,-23.926,-1000.000,-482.910,-1.465,0.000
1757709998.846,53.223,-1000.000,-403.809,33.691,0.000
1757709998.849,112.793,-1000.000,-367.676,101.562,0.000
1757709998.853,53.223,-1000.000,-425.293,101.074,0.000
1757709998.857,-13.672,-1000.000,-486.328,17.578,0.000
1757709998.861,58.105,-1000.000,-455.078,50.293,0.000
1757709998.865,117.676,-1000.000,-337.402,87.402,0.000
1757709998.869,102.539,-1000.000,-370.605,109.375,0.000
1757709998.873,23.926,-1000.000,-527.832,80.566,0.000
1757709998.877,38.574,-1000.000,-427.246,9.766,0.000
1757709998.881,95.215,-1000.000,-281.738,53.223,0.000
1757709998.885,87.891,-1000.000,-403.320,104.004,0.000
1757709998.889,0.000,-1000.000,-605.957,30.273,0.000
1757709998.892,-0.977,-1000.000,-516.602,-4.883,0.000
1757709998.896,70.801,-1000.000,-321.289,41.992,0.000
1757709998.900,71.777,-1000.000,-357.910,45.410,0.000
1757709998.904,-4.395,-1000.000,-626.953,20.996,0.000
1757709998.908,-51.270,-1000.000,-620.605,-33.203,0.000
1757709998.912,22.461,-1000.000,-254.395,-31.738,0.000
1757709998.916,87.891,-1000.000,-288.574,31.738,0.000
1757709998.920,55.176,-1000.000,-497.070,70.312,0.000
1757709998.924,-38.086,-1000.000,-469.238,-14.160,0.000
1757709998.928,-0.488,-1000.000,-297.852,-36.621,0.000
1757709998.932,70.312,-1000.000,-331.055,20.996,0.000
1757709998.935,58.594,-1000.000,-522.949,50.293,0.000
1757709998.939,-33.203,-1000.000,-612.305,-18.555,0.000
1757709998.943,-26.855,-1000.000,-457.031,-62.012,0.000
1757709998.947,24.414,-1000.000,-349.609,-28.809,0.000
1757709998.951,23.438,-1000.000,-625.488,22.461,0.000
1757709998.955,-65.918,-1000.000,-731.934,-26.855,0.000
1757709998.959,-103.027,-1000.000,-432.129,-106.445,0.000
1757709998.963,-33.691,-1000.000,-416.016,-76.660,0.000
1757709998.967,6.348,-1000.000,-499.023,-22.461,0.000
1757709998.971,-51.270,-1000.000,-528.809,-37.598,0.000
1757709998.974,-123.047,-1000.000,-541.992,-120.605,0.000
1757709998.978,-60.547,-1000.000,-514.160,-78.613,0.000
1757709998.982,-2.930,-1000.000,-524.414,-15.137,0.000
1757709998.986,-36.621,-1000.000,-618.652,-20.020,0.000
1757709998.990,-118.164,-1000.000,-629.883,-103.516,0.000
1757709998.994,-83.984,-1000.000,-590.820,-86.914,0.000
1757709998.998,-19.043,-1000.000,-582.031,-15.137,0.000
1757709999.002,-24.902,-1000.000,-455.078,21.484,0.000
1757709999.006,-97.168,-1000.000,-563.477,-45.410,0.000
1757709999.010,-84.473,-1000.000,-536.621,-107.422,0.000
1757709999.014,-16.602,-1000.000,-378.906,-59.082,0.000
1757709999.017,-7.324,-1000.000,-389.648,-18.066,0.000
1757709999.021,-98.145,-1000.000,-558.105,-54.199,0.000
1757709999.025,-134.277,-1000.000,-527.344,-110.352,0.000
1757709999.029,-41.992,-1000.000,-374.023,-82.520,0.000
1757709999.033,8.301,-1000.000,-465.820,-21.484,0.000
1757709999.037,-60.059,-1000.000,-607.910,-10.254,0.000
1757709999.041,-134.766,-1000.000,-680.664,-73.730,0.000
1757709999.045,-60.059,-1000.000,-486.816,-55.664,0.000
1757709999.049,6.348,-1000.000,-284.180,-7.324,0.000
1757709999.053,-31.250,-1000.000,-503.906,11.719,0.000
1757709999.057,-104.980,-1000.000,-581.543,-54.688,0.000
1757709999.060,-61.035,-1000.000,-344.238,-75.195,0.000
1757709999.064,-11.230,-1000.000,-313.965,-23.438,0.000
1757709999.068,-24.414,-1000.000,-544.434,35.645,0.000
1757709999.072,-110.352,-1000.000,-635.742,-40.039,0.000
1757709999.076,-110.840,-1000.000,-406.738,-99.121,0.000
1757709999.080,-17.578,-1000.000,-331.055,-12.695,0.000
1757709999.084,2.930,-1000.000,-531.738,46.387,0.000
1757709999.088,-74.219,-1000.000,-697.754,10.742,0.000
1757709999.092,-102.539,-1000.000,-411.621,-59.082,0.000
1757709999.096,-26.367,-1000.000,-252.930,-31.738,0.000
1757709999.099,16.113,-1000.000,-342.773,30.273,0.000
1757709999.103,-34.180,-1000.000,-464.844,30.273,0.000
1757709999.107,-100.586,-1000.000,-409.180,-41.016,0.000
1757709999.111,-42.969,-1000.000,-296.875,-27.832,0.000
1757709999.115,17.578,-1000.000,-315.918,27.832,0.000
1757709999.119,7.812,-1000.000,-393.555,46.875,0.000
1757709999.123,-73.242,-1000.000,-498.047,-19.043,0.000
1757709999.127,-54.199,-1000.000,-374.023,-35.156,0.000
1757709999.131,16.602,-1000.000,-431.641,33.691,0.000
1757709999.135,27.344,-1000.000,-487.305,47.852,0.000
1757709999.139,-47.363,-1000.000,-389.648,-6.836,0.000
1757709999.142,-61.035,-1000.000,-385.742,-31.738,0.000
1757709999.146,20.508,-1000.000,-272.949,0.000,0.000
1757709999.150,43.945,-1000.000,-245.117,44.434,0.000
1757709999.154,-25.879,-1000.000,-404.785,16.602,0.000
1757709999.158,-77.637,-1000.000,-458.496,-62.988,0.000
1757709999.162,-0.488,-1000.000,-323.242,-41.992,0.000
1757709999.166,75.684,-1000.000,-271.484,37.598,0.000
1757709999.170,7.812,-1000.000,-404.785,24.414,0.000
1757709999.174,-113.281,-1000.000,-596.191,-96.680,0.000
1757709999.178,-66.406,-1000.000,-532.227,-86.914,0.000
1757709999.181,0.000,-1000.000,-231.445,-21.484,0.000
1757709999.185,-34.668,-1000.000,-320.801,-9.766,0.000
1757709999.189,-128.906,-1000.000,-439.453,-71.777,0.000
1757709999.193,-122.559,-1000.000,-354.004,-117.188,0.000
1757709999.197,-63.965,-1000.000,-227.539,-90.820,0.000
1757709999.201,-58.594,-1000.000,-264.160,-46.875,0.000
1757709999.205,-141.602,-1000.000,-461.426,-85.449,0.000
1757709999.209,-171.387,-1000.000,-351.074,-151.367,0.000
1757709999.213,-107.422,-1000.000,-198.730,-138.184,0.000
1757709999.217,-72.754,-1000.000,-272.461,-67.871,0.000
1757709999.221,-121.582,-1000.000,-517.578,-57.129,0.000
1757709999.224,-182.129,-1000.000,-456.543,-124.512,0.000
1757709999.228,-102.539,-1000.000,-195.801,-100.098,0.000
1757709999.232,-40.039,-1000.000,-252.441,-42.480,0.000
1757709999.236,-74.707,-1000.000,-511.230,-12.695,0.000
1757709999.240,-137.207,-1000.000,-457.031,-85.449,0.000
1757709999.244,-103.027,-1000.000,-205.078,-99.609,0.000
1757709999.248,-40.039,-1000.000,-269.531,-33.203,0.000
1757709999.252,-31.250,-1000.000,-448.730,-1.465,0.000
1757709999.256,-108.887,-1000.000,-416.016,-61.523,0.000
1757709999.260,-113.281,-1000.000,-339.844,-101.074,0.000
1757709999.264,-34.668,-1000.000,-360.840,-51.758,0.000
1757709999.267,-14.160,-1000.000,-459.473,-2.930,0.000
1757709999.271,-88.867,-1000.000,-482.422,-34.180,0.000
1757709999.275,-110.352,-1000.000,-336.426,-97.168,0.000
1757709999.279,-26.367,-1000.000,-389.648,-64.453,0.000
1757709999.283,8.789,-1000.000,-500.000,-7.324,0.000
1757709999.287,-46.387,-1000.000,-416.992,-12.207,0.000
1757709999.291,-105.469,-1000.000,-495.117,-79.590,0.000
1757709999.295,-50.781,-1000.000,-363.770,-75.195,0.000
1757709999.299,-6.836,-1000.000,-250.977,-21.973,0.000
1757709999.303,-37.109,-1000.000,-393.555,19.043,0.000
1757709999.307,-103.516,-1000.000,-483.887,-47.363,0.000
1757709999.310,-81.055,-1000.000,-395.996,-83.984,0.000
1757709999.314,-9.277,-1000.000,-353.027,-29.785,0.000
1757709999.318,5.859,-1000.000,-382.812,13.672,0.000
1757709999.322,-83.984,-1000.000,-492.676,-30.762,0.000
1757709999.326,-100.098,-1000.000,-502.441,-74.707,0.000
1757709999.330,-19.043,-1000.000,-306.152,-33.691,0.000
1757709999.334,12.695,-1000.000,-266.602,26.367,0.000
1757709999.338,-57.617,-1000.000,-492.676,4.395,0.000
1757709999.342,-101.562,-1000.000,-513.672,-78.125,0.000
1757709999.346,-26.855,-1000.000,-348.145,-57.129,0.000
1757709999.349,27.344,-1000.000,-308.594,1.953,0.000
1757709999.353,-13.672,-1000.000,-535.156,4.395,0.000
1757709999.357,-87.402,-1000.000,-624.023,-52.246,0.000
1757709999.361,-47.852,-1000.000,-406.738,-59.570,0.000
1757709999.365,0.977,-1000.000,-305.176,-20.020,0.000
1757709999.369,-6.836,-1000.000,-518.555,19.043,0.000
1757709999.373,-81.543,-1000.000,-678.223,-41.992,0.000
1757709999.377,-66.406,-1000.000,-338.379,-67.871,0.000
1757709999.381,21.484,-1000.000,-263.184,-13.672,0.000
1757709999.385,45.898,-1000.000,-407.715,35.156,0.000
1757709999.389,-48.340,-1000.000,-497.559,-24.414,0.000
1757709999.392,-80.078,-1000.000,-375.488,-69.336,0.000
1757709999.396,12.695,-1000.000,-315.430,-9.277,0.000
1757709999.400,40.527,-1000.000,-417.969,38.086,0.000
1757709999.404,-32.715,-1000.000,-515.137,17.578,0.000
1757709999.408,-73.242,-1000.000,-519.531,-69.336,0.000
1757709999.412,-4.395,-1000.000,-384.277,-54.688,0.000
1757709999.416,43.945,-1000.000,-494.141,22.461,0.000
1757709999.420,3.418,-1000.000,-590.820,31.738,0.000
1757709999.424,-70.312,-1000.000,-415.039,-49.316,0.000
1757709999.428,-17.578,-1000.000,-362.305,-38.086,0.000
1757709999.431,45.898,-1000.000,-369.629,11.230,0.000
1757709999.435,21.973,-1000.000,-382.324,22.949,0.000
1757709999.439,-62.500,-1000.000,-420.898,-30.762,0.000
1757709999.443,-62.500,-1000.000,-413.574,-61.523,0.000
1757709999.447,3.418,-1000.000,-394.531,-18.066,0.000
1757709999.451,24.414,-1000.000,-371.582,28.320,0.000
1757709999.455,-60.547,-998.535,-481.934,-8.301,0.000
1757709999.459,-82.031,-1000.000,-533.203,-73.242,0.000
1757709999.463,7.324,-990.234,-466.797,-39.551,0.000
1757709999.467,49.316,-965.820,-219.727,33.691,0.000
1757709999.471,4.883,-996.582,-357.910,51.270,0.000
1757709999.474,-63.477,-1000.000,-448.730,-18.066,0.000
1757709999.478,0.000,-750.488,-205.078,-11.230,0.000
1757709999.482,50.293,-494.629,-9.277,32.227,0.000
1757709999.486,8.789,-706.055,-239.746,41.016,0.000
1757709999.490,-73.730,-1000.000,-476.562,-41.016,0.000
1757709999.494,-41.016,-671.875,-256.836,-63.477,0.000
1757709999.498,38.086,-249.023,-30.762,-9.766,0.000
1757709999.502,28.320,-523.926,-229.980,29.297,0.000
1757709999.506,-73.242,-983.887,-600.098,-27.344,0.000
1757709999.510,-83.496,-618.652,-423.828,-70.312,0.000
1757709999.514,-7.324,-120.605,-170.410,-27.832,0.000
1757709999.517,19.043,-246.094,-308.594,7.812,0.000
1757709999.521,-58.594,-519.531,-427.246,-25.879,0.000
1757709999.525,-105.957,-337.402,-347.656,-94.238,0.000
1757709999.529,-27.344,116.699,-126.465,-57.617,0.000
1757709999.533,11.230,24.414,-174.805,0.977,0.000
1757709999.537,-53.223,-351.074,-479.492,-13.672,0.000
1757709999.541,-120.117,-482.422,-459.961,-83.984,0.000
1757709999.545,-56.152,-52.246,-235.352,-75.684,0.000
1757709999.549,12.695,-135.254,-378.906,-18.066,0.000
1757709999.553,-20.020,-576.172,-556.641,22.949,0.000
1757709999.557,-112.793,-154.297,-367.188,-54.199,0.000
1757709999.560,-83.008,282.715,-253.418,-77.637,0.000
1757709999.564,-11.719,145.508,-254.395,-19.531,0.000
1757709999.568,0.488,-195.801,-371.094,6.836,0.000
1757709999.572,-93.262,-183.105,-415.527,-41.504,0.000
1757709999.576,-114.746,135.254,-312.012,-95.703,0.000
1757709999.580,-30.273,142.578,-277.344,-60.547,0.000
1757709999.584,-2.441,77.637,-296.387,0.977,0.000
1757709999.588,-68.359,76.172,-396.973,-29.297,0.000
1757709999.592,-111.816,75.684,-402.832,-107.422,0.000
1757709999.596,-35.156,-3.418,-360.840,-74.707,0.000
1757709999.599,5.371,63.965,-303.223,-10.254,0.000
1757709999.603,-28.809,238.770,-339.844,7.812,0.000
1757709999.607,-84.961,126.953,-425.781,-59.570,0.000
1757709999.611,-47.852,-193.359,-376.953,-59.082,0.000
1757709999.615,11.230,-15.625,-258.789,-9.277,0.000
1757709999.619,-0.488,346.680,-323.242,17.578,0.000
1757709999.623,-97.168,-61.035,-489.746,-41.016,0.000
1757709999.627,-80.566,-128.906,-389.160,-84.473,0.000
1757709999.631,10.254,429.688,-212.891,-31.250,0.000
1757709999.635,34.668,302.246,-324.219,21.973,0.000
1757709999.639,-43.945,-282.227,-559.570,-22.461,0.000
1757709999.642,-77.148,-363.281,-531.250,-77.148,0.000
1757709999.646,-2.441,145.508,-253.418,-41.016,0.000
1757709999.650,37.598,558.594,-183.594,17.578,0.000
1757709999.654,-16.602,-162.598,-517.090,17.090,0.000
1757709999.658,-86.426,-728.516,-611.328,-41.504,0.000
1757709999.662,-24.902,176.758,-215.820,-29.785,0.000
1757709999.666,41.992,520.020,-202.637,18.066,0.000
1757709999.670,1.953,-53.223,-431.641,42.480,0.000
1757709999.674,-89.844,-200.195,-414.551,-37.109,0.000
1757709999.678,-44.922,197.754,-254.883,-68.848,0.000
1757709999.682,18.555,120.605,-278.320,-22.949,0.000
1757709999.685,11.719,-180.664,-420.410,31.250,0.000
1757709999.689,-65.430,-502.930,-509.277,-28.809,0.000
1757709999.693,-83.496,-305.176,-352.051,-84.961,0.000
1757709999.697,-9.766,174.805,-234.863,-46.387,0.000
1757709999.701,24.414,-437.988,-463.379,-1.465,0.000
1757709999.705,-77.637,-662.109,-557.617,-16.602,0.000
1757709999.709,-113.770,108.887,-353.027,-83.984,0.000
1757709999.713,-22.949,311.035,-301.758,-57.129,0.000
1757709999.717,4.883,127.441,-368.652,1.953,0.000
1757709999.721,-53.711,57.617,-432.617,-12.207,0.000
1757709999.724,-120.117,91.797,-417.480,-102.051,0.000
1757709999.728,-55.176,18.555,-390.137,-74.219,0.000
1757709999.732,6.836,-72.754,-425.293,-11.719,0.000
1757709999.736,-24.902,-177.246,-478.516,7.324,0.000
1757709999.740,-100.098,-445.801,-518.066,-52.246,0.000
1757709999.744,-75.684,-574.707,-545.898,-84.473,0.000
1757709999.748,-18.555,-601.562,-547.852,-43.457,0.000
1757709999.752,-12.695,-113.770,-382.324,25.391,0.000
1757709999.756,-87.891,-95.703,-487.793,-19.531,0.000
1757709999.760,-106.934,-520.020,-493.652,-96.680,0.000
1757709999.764,-41.504,-340.332,-347.656,-41.504,0.000
1757709999.767,1.953,108.398,-312.012,29.297,0.000
1757709999.771,-56.641,-304.688,-511.719,-7.812,0.000
1757709999.775,-125.000,-666.504,-525.391,-92.773,0.000
1757709999.779,-71.777,-330.078,-356.934,-80.078,0.000
1757709999.783,-5.371,-341.797,-402.344,9.277,0.000
1757709999.787,-38.086,-693.848,-517.090,45.410,0.000
1757709999.791,-132.812,-981.445,-698.730,-32.715,0.000
1757709999.795,-93.262,-729.004,-533.691,-48.828,0.000
1757709999.799,-2.441,-79.102,-265.137,-1.953,0.000
1757709999.803,-10.742,-312.500,-448.242,45.410,0.000
1757709999.807,-111.328,-785.645,-569.824,-27.832,0.000
1757709999.810,-115.723,-520.996,-378.418,-84.961,0.000
1757709999.814,-50.293,-195.801,-269.531,-41.992,0.000
1757709999.818,-3.418,-482.422,-440.430,27.832,0.000
1757709999.822,-83.984,-1000.000,-647.461,-0.977,0.000
1757709999.826,-119.629,-894.043,-517.090,-59.082,0.000
1757709999.830,-39.551,-713.379,-379.395,-21.484,0.000
1757709999.834,20.508,-863.281,-502.441,42.969,0.000
1757709999.838,-59.570,-1000.000,-683.594,31.738,0.000
1757709999.842,-143.555,-787.109,-460.449,-53.711,0.000
1757709999.846,-41.992,-457.520,-309.570,-31.738,0.000
1757709999.849,11.719,-662.109,-348.633,37.598,0.000
1757709999.853,-15.137,-896.484,-426.758,57.617,0.000
1757709999.857,-91.309,-838.379,-437.500,-25.391,0.000
1757709999.861,-75.684,-732.422,-371.582,-40.039,0.000
1757709999.865,-22.949,-795.410,-366.699,18.555,0.000
1757709999.869,-12.695,-859.375,-377.930,70.312,0.000
1757709999.873,-98.145,-936.523,-481.445,3.906,0.000
1757709999.877,-99.121,-989.746,-421.875,-60.059,0.000
1757709999.881,-8.301,-998.047,-497.070,-4.395,0.000
1757709999.885,18.066,-868.164,-496.094,70.312,0.000
1757709999.889,-70.801,-766.602,-390.137,21.973,0.000
1757709999.892,-105.957,-894.531,-441.406,-72.266,0.000
1757709999.896,-38.574,-779.785,-358.887,-41.504,0.000
1757709999.900,6.348,-587.891,-294.434,44.434,0.000
1757709999.904,-32.715,-800.293,-456.055,45.410,0.000
1757709999.908,-125.488,-1000.000,-571.777,-69.336,0.000
1757709999.912,-103.516,-856.934,-416.992,-79.590,0.000
1757709999.916,-42.480,-773.926,-330.566,-12.207,0.000
1757709999.920,-53.711,-923.828,-398.438,-8.301,0.000
1757709999.924,-150.879,-1000.000,-615.723,-96.680,0.000
1757709999.928,-117.676,-877.930,-559.082,-108.887,0.000
1757709999.931,-39.551,-485.352,-235.840,-71.289,0.000
1757709999.935,-55.664,-498.047,-288.086,-48.340,0.000
1757709999.939,-180.176,-881.836,-480.957,-106.934,0.000
1757709999.943,-207.520,-844.238,-395.508,-158.691,0.000
1757709999.947,-135.742,-540.039,-219.238,-119.141,0.000
1757709999.951,-106.445,-611.816,-278.809,-54.688,0.000
1757709999.955,-166.992,-885.254,-466.797,-95.703,0.000
1757709999.959,-239.258,-971.191,-451.172,-205.078,0.000
1757709999.963,-187.988,-661.621,-315.430,-189.453,0.000
1757709999.967,-125.000,-193.848,-277.832,-132.812,0.000
1757709999.971,-159.180,-532.715,-477.051,-87.402,0.000
1757709999.974,-253.906,-581.543,-468.750,-156.250,0.000
1757709999.978,-219.727,269.043,-257.324,-192.383,0.000
1757709999.982,-140.137,678.223,-241.699,-127.441,0.000
1757709999.986,-136.719,135.254,-426.758,-78.125,0.000
1757709999.990,-219.238,179.199,-408.203,-163.574,0.000
1757709999.994,-197.266,908.203,-234.863,-184.570,0.000
1757709999.998,-130.859,913.086,-263.672,-126.465,0.000
1757710000.002,-107.422,847.168,-351.074,-74.219,0.000
1757710000.006,-188.477,869.629,-399.902,-108.398,0.000
1757710000.010,-223.145,791.016,-381.836,-180.664,0.000
1757710000.014,-139.648,817.383,-356.445,-125.977,0.000
1757710000.017,-80.078,862.793,-389.160,-27.832,0.000
1757710000.021,-142.090,698.242,-463.379,-47.852,0.000
1757710000.025,-206.543,801.758,-342.285,-134.277,0.000
1757710000.029,-128.906,781.250,-370.117,-106.445,0.000
1757710000.033,-63.965,532.715,-467.773,-36.133,0.000
1757710000.037,-90.332,896.484,-309.570,-7.324,0.000
1757710000.041,-160.645,936.035,-395.508,-83.008,0.000
1757710000.045,-123.047,787.109,-333.496,-104.980,0.000
1757710000.049,-45.898,851.562,-205.566,-42.969,0.000
1757710000.053,-29.785,981.445,-244.141,15.625,0.000
1757710000.057,-107.910,832.520,-408.203,-46.875,0.000
1757710000.060,-112.305,653.320,-396.484,-97.168,0.000
1757710000.064,-42.969,598.145,-322.266,-41.016,0.000
1757710000.068,0.000,645.508,-305.176,41.504,0.000
1757710000.072,-85.938,384.766,-444.336,4.883,0.000
1757710000.076,-116.699,-247.559,-473.633,-71.289,0.000
1757710000.080,-32.715,46.387,-285.645,-48.340,0.000
1757710000.084,25.391,589.355,-227.539,28.809,0.000
1757710000.088,-11.230,70.312,-416.504,45.898,0.000
1757710000.092,-84.473,-527.344,-503.418,-47.852,0.000
1757710000.096,-29.297,-135.254,-273.438,-46.387,0.000
1757710000.099,42.969,63.965,-257.324,17.090,0.000
1757710000.103,24.902,-585.449,-486.816,63.477,0.000
1757710000.107,-63.965,-935.059,-538.086,-18.066,0.000
1757710000.111,-34.180,-846.191,-414.062,-73.730,0.000
1757710000.115,41.992,-812.012,-279.785,-20.996,0.000
1757710000.119,49.316,-836.914,-426.758,63.477,0.000
1757710000.123,-42.969,-1000.000,-656.250,24.902,0.000
1757710000.127,-42.480,-984.863,-367.676,-61.035,0.000
1757710000.131,31.738,-991.699,-346.191,-25.879,0.000
1757710000.135,73.730,-1000.000,-384.277,57.129,0.000
1757710000.139,12.207,-999.512,-418.945,38.086,0.000
1757710000.142,-39.062,-1000.000,-398.926,-31.738,0.000
1757710000.146,33.203,-1000.000,-323.242,-11.230,0.000
1757710000.150,97.656,-1000.000,-316.895,62.012,0.000
1757710000.154,47.852,-1000.000,-420.898,78.613,0.000
1757710000.158,-34.668,-1000.000,-520.508,-17.090,0.000
1757710000.162,19.531,-1000.000,-394.043,-31.250,0.000
1757710000.166,82.031,-1000.000,-438.477,38.086,0.000
1757710000.170,61.523,-1000.000,-446.777,77.637,0.000
1757710000.174,-39.551,-1000.000,-399.414,-18.555,0.000
1757710000.178,-27.832,-1000.000,-388.672,-66.895,0.000
1757710000.181,41.016,-1000.000,-372.559,-10.254,0.000
1757710000.185,50.293,-1000.000,-373.047,65.430,0.000
1757710000.189,-38.086,-1000.000,-413.574,17.090,0.000
1757710000.193,-49.316,-1000.000,-457.520,-65.430,0.000
1757710000.197,33.691,-1000.000,-430.664,-25.391,0.000
1757710000.201,75.195,-1000.000,-335.938,60.547,0.000
1757710000.205,5.371,-1000.000,-461.914,42.480,0.000
1757710000.209,-58.105,-1000.000,-643.066,-62.012,0.000
1757710000.213,11.230,-1000.000,-554.199,-55.664,0.000
1757710000.217,71.777,-1000.000,-273.926,17.578,0.000
1757710000.221,29.785,-1000.000,-392.578,50.781,0.000
1757710000.224,-53.711,-1000.000,-480.957,-32.227,0.000
1757710000.228,-12.207,-1000.000,-356.445,-49.316,0.000
1757710000.232,52.246,-1000.000,-256.836,10.254,0.000
1757710000.236,40.527,-1000.000,-370.117,59.082,0.000
1757710000.240,-57.129,-1000.000,-540.527,-15.625,0.000
1757710000.244,-48.828,-1000.000,-359.375,-74.707,0.000
1757710000.248,32.227,-1000.000,-296.875,-20.508,0.000
1757710000.252,47.363,-1000.000,-395.508,63.965,0.000
1757710000.256,-49.805,-1000.000,-647.949,45.410,0.000
1757710000.260,-69.824,-1000.000,-565.430,-44.922,0.000
1757710000.264,14.160,-1000.000,-260.742,-32.227,0.000
1757710000.267,45.898,-1000.000,-310.547,54.199,0.000
1757710000.271,-18.555,-1000.000,-451.172,50.293,0.000
1757710000.275,-82.520,-1000.000,-454.102,-44.434,0.000
1757710000.279,-36.621,-1000.000,-305.664,-31.250,0.000
1757710000.283,35.645,-1000.000,-326.660,25.879,0.000
1757710000.287,26.367,-1000.000,-472.656,61.523,0.000
1757710000.291,-77.148,-1000.000,-492.188,-15.137,0.000
1757710000.295,-39.062,-1000.000,-391.602,-56.152,0.000
1757710000.299,23.926,-1000.000,-436.523,12.207,0.000
1757710000.303,18.066,-1000.000,-508.301,84.473,0.000
1757710000.306,-69.336,-1000.000,-446.777,15.137,0.000
1757710000.310,-83.984,-1000.000,-349.609,-58.594,0.000
1757710000.314,1.465,-1000.000,-429.688,-22.461,0.000
1757710000.318,34.180,-1000.000,-510.254,70.312,0.000
1757710000.322,-50.781,-1000.000,-402.832,32.227,0.000
1757710000.326,-103.027,-1000.000,-405.762,-62.988,0.000
1757710000.330,-41.992,-1000.000,-360.352,-43.945,0.000
1757710000.334,11.719,-1000.000,-293.457,17.090,0.000
1757710000.338,-55.664,-1000.000,-360.840,12.695,0.000
1757710000.342,-125.977,-1000.000,-462.402,-54.199,0.000
1757710000.346,-55.664,-1000.000,-435.059,-47.852,0.000
1757710000.349,-20.508,-1000.000,-340.820,-22.461,0.000
1757710000.353,-61.035,-995.117,-377.441,-2.930,0.000
1757710000.357,-163.086,-1000.000,-471.680,-87.891,0.000
1757710000.361,-163.086,-987.305,-448.242,-161.133,0.000
1757710000.365,-92.773,-820.312,-292.969,-143.555,0.000
1757710000.369,-72.754,-762.207,-283.691,-63.477,0.000
1757710000.373,-187.500,-962.402,-493.652,-117.188,0.000
1757710000.377,-216.797,-925.293,-472.168,-197.754,0.000
1757710000.381,-130.371,-646.973,-269.531,-165.039,0.000
1757710000.385,-89.844,-810.059,-327.148,-110.840,0.000
1757710000.389,-164.551,-1000.000,-565.430,-116.211,0.000
1757710000.392,-227.051,-996.582,-579.102,-209.961,0.000
1757710000.396,-155.273,-777.832,-356.934,-204.590,0.000
1757710000.400,-88.379,-327.148,-220.215,-118.164,0.000
1757710000.404,-130.371,-604.004,-495.605,-101.074,0.000
1757710000.408,-210.938,-992.676,-683.594,-182.129,0.000
1757710000.412,-168.945,-463.867,-319.824,-197.266,0.000
1757710000.416,-88.867,-66.895,-249.512,-139.648,0.000
1757710000.420,-82.520,-436.523,-403.320,-62.012,0.000
1757710000.424,-168.945,-663.574,-457.031,-125.000,0.000
1757710000.428,-154.785,-306.152,-338.867,-175.293,0.000
1757710000.432,-86.426,-87.402,-297.852,-138.184,0.000
1757710000.435,-55.664,-318.359,-405.273,-57.617,0.000
1757710000.439,-127.930,-781.250,-554.199,-73.242,0.000
1757710000.443,-135.742,-623.047,-451.172,-140.625,0.000
1757710000.447,-51.758,-54.199,-307.129,-95.703,0.000
1757710000.451,2.930,-527.344,-507.324,11.230,0.000
1757710000.455,-37.598,-695.312,-568.848,34.668,0.000
1757710000.459,-82.031,-159.668,-437.988,-60.547,0.000
1757710000.463,-13.184,-281.738,-454.102,-36.621,0.000
1757710000.467,67.871,-222.656,-386.719,62.012,0.000
1757710000.471,40.527,-116.699,-413.086,103.027,0.000
1757710000.474,-49.805,-242.676,-473.145,32.227,0.000
1757710000.478,8.789,-456.055,-491.211,19.531,0.000
1757710000.482,85.938,-442.871,-467.773,63.477,0.000
1757710000.486,80.078,-476.562,-484.375,135.254,0.000
1757710000.490,-10.254,-646.484,-505.371,99.121,0.000
1757710000.494,-8.789,-665.527,-538.574,42.969,0.000
1757710000.498,64.941,-834.473,-584.961,76.660,0.000
1757710000.502,103.027,-355.469,-333.496,148.438,0.000
1757710000.506,18.066,-373.047,-444.336,136.230,0.000
1757710000.510,-39.551,-789.062,-513.672,55.176,0.000
1757710000.514,33.691,-558.105,-357.422,81.055,0.000
1757710000.517,89.844,-281.250,-338.867,158.691,0.000
1757710000.521,49.316,-731.934,-548.828,164.062,0.000
1757710000.525,-40.039,-973.633,-562.988,53.711,0.000
1757710000.529,-9.766,-590.820,-385.254,55.664,0.000
1757710000.533,79.102,-590.820,-410.645,131.348,0.000
1757710000.537,73.242,-883.301,-503.906,166.504,0.000
1757710000.541,-43.945,-1000.000,-669.434,92.773,0.000
1757710000.545,-22.461,-750.488,-533.203,67.383,0.000
1757710000.549,65.918,-312.012,-292.969,129.883,0.000
1757710000.553,83.496,-578.125,-416.016,180.664,0.000
1757710000.556,-14.648,-953.125,-532.227,120.117,0.000
1757710000.560,-40.039,-765.625,-422.363,57.129,0.000
1757710000.564,18.066,-542.480,-319.824,92.285,0.000
1757710000.568,66.895,-725.098,-409.668,160.645,0.000
1757710000.572,8.789,-1000.000,-624.512,133.789,0.000
1757710000.576,-72.266,-993.164,-543.457,69.336,0.000
1757710000.580,-16.113,-962.402,-376.465,91.309,0.000
1757710000.584,72.266,-970.215,-499.512,149.414,0.000
1757710000.588,27.832,-992.676,-667.480,150.879,0.000
1757710000.592,-67.871,-850.098,-437.012,58.105,0.000
1757710000.596,-35.156,-524.414,-316.895,56.641,0.000
1757710000.599,38.574,-613.770,-310.547,112.793,0.000
1757710000.603,47.363,-808.105,-380.859,148.438,0.000
1757710000.607,-51.270,-797.363,-449.707,66.895,0.000
1757710000.611,-47.852,-667.480,-368.652,23.438,0.000
1757710000.615,17.578,-632.812,-322.754,87.891,0.000
1757710000.619,51.270,-613.770,-336.426,139.160,0.000
1757710000.623,-31.738,-675.293,-449.707,83.008,0.000
1757710000.627,-79.102,-845.215,-451.172,13.672,0.000
1757710000.631,-17.090,-959.961,-517.090,48.828,0.000
1757710000.635,48.340,-683.105,-465.332,114.258,0.000
1757710000.639,1.953,-333.984,-379.395,79.590,0.000
1757710000.642,-94.727,-465.820,-436.523,2.441,0.000
1757710000.646,-46.875,-630.859,-387.695,31.250,0.000
1757710000.650,36.621,-352.539,-274.414,94.238,0.000
1757710000.654,17.090,-200.195,-343.262,90.332,0.000
1757710000.658,-84.961,-573.242,-472.656,-7.812,0.000
1757710000.662,-72.266,-574.707,-417.480,-16.602,0.000
1757710000.666,10.742,-441.895,-328.125,42.969,0.000
1757710000.670,41.504,-419.922,-334.473,85.449,0.000
1757710000.674,-56.641,-796.387,-580.566,24.902,0.000
1757710000.678,-83.496,-910.645,-569.336,1.465,0.000
1757710000.681,-11.719,-206.543,-205.078,50.293,0.000
1757710000.685,46.875,-120.117,-292.969,92.773,0.000
1757710000.689,-25.391,-713.379,-500.488,34.668,0.000
1757710000.693,-89.355,-578.125,-359.375,-36.621,0.000
1757710000.697,-20.996,-53.223,-189.941,-4.395,0.000
1757710000.701,49.316,-99.609,-242.188,62.500,0.000
1757710000.705,-7.812,-638.184,-455.078,62.988,0.000
1757710000.709,-95.215,-720.215,-419.434,-22.461,0.000
1757710000.713,-39.062,-303.711,-260.742,-22.461,0.000
1757710000.717,26.855,-281.250,-273.926,41.016,0.000
1757710000.721,12.695,-764.648,-489.258,54.688,0.000
1757710000.724,-86.914,-885.742,-495.605,-34.180,0.000
1757710000.728,-74.707,-344.238,-277.344,-45.410,0.000
1757710000.732,-0.977,-254.395,-287.598,10.742,0.000
1757710000.736,29.785,-678.711,-454.102,55.176,0.000
1757710000.740,-57.617,-775.879,-461.426,-15.137,0.000
1757710000.744,-101.074,-523.926,-349.121,-62.012,0.000
1757710000.748,-46.387,-380.859,-334.961,-11.719,0.000
1757710000.752,15.625,-367.188,-381.348,43.945,0.000
1757710000.756,-38.574,-449.219,-427.734,12.695,0.000
1757710000.760,-108.398,-652.344,-437.012,-58.594,0.000
1757710000.764,-52.734,-579.590,-393.555,-28.320,0.000
1757710000.767,28.320,-553.711,-421.387,38.574,0.000
1757710000.771,-3.906,-635.742,-462.402,23.926,0.000
1757710000.775,-97.656,-388.672,-388.184,-57.129,0.000
1757710000.779,-60.547,-527.832,-441.895,-36.621,0.000
1757710000.783,1.465,-740.723,-490.234,19.531,0.000
1757710000.787,1.465,-318.848,-339.355,32.715,0.000
1757710000.791,-90.820,-359.375,-432.129,-53.711,0.000
1757710000.795,-98.633,-503.906,-356.934,-83.984,0.000
1757710000.799,-26.855,-436.523,-286.621,-19.531,0.000
1757710000.803,16.602,-340.332,-359.863,37.598,0.000
1757710000.806,-71.777,-449.707,-439.453,-29.297,0.000
1757710000.810,-119.141,-732.910,-454.590,-75.684,0.000
1757710000.814,-55.176,-763.672,-362.793,-27.344,0.000
1757710000.818,14.160,-439.941,-317.383,24.902,0.000
1757710000.822,-31.738,-462.402,-419.434,-9.277,0.000
1757710000.826,-111.816,-904.297,-567.871,-80.566,0.000
1757710000.830,-66.895,-620.605,-416.992,-44.922,0.000
1757710000.834,15.137,-62.012,-231.934,13.672,0.000
1757710000.838,5.859,-412.598,-432.129,-8.301,0.000
1757710000.842,-89.844,-674.316,-480.957,-89.355,0.000
1757710000.846,-74.219,-239.258,-271.484,-74.219,0.000
1757710000.849,6.348,12.207,-237.793,-19.531,0.000
1757710000.853,29.785,-447.754,-469.727,17.090,0.000
1757710000.857,-65.430,-860.352,-596.680,-43.457,0.000
1757710000.861,-85.449,-535.645,-406.250,-76.660,0.000
1757710000.865,-20.508,-202.637,-301.758,-41.016,0.000
1757710000.869,31.738,-481.445,-536.621,9.277,0.000
1757710000.873,-46.875,-832.520,-695.312,-38.086,0.000
1757710000.877,-106.445,-119.141,-333.984,-90.332,0.000
1757710000.881,-40.527,323.242,-253.906,-48.340,0.000
1757710000.885,34.668,-43.457,-376.465,6.836,0.000
1757710000.889,-25.879,-265.137,-450.684,-23.438,0.000
1757710000.892,-114.258,-44.922,-407.715,-109.375,0.000
1757710000.896,-52.246,222.656,-307.617,-72.266,0.000
1757710000.900,22.461,126.465,-334.473,-0.977,0.000
1757710000.904,9.766,-83.008,-451.660,-2.441,0.000
1757710000.908,-90.332,-288.574,-507.324,-78.613,0.000
1757710000.912,-77.637,-154.297,-385.254,-73.242,0.000
1757710000.916,-6.836,-191.895,-384.277,-24.902,0.000
1757710000.920,22.461,-104.004,-400.391,7.324,0.000
1757710000.924,-67.383,150.879,-437.012,-64.453,0.000
1757710000.928,-102.051,137.695,-403.320,-101.562,0.000
1757710000.931,-28.809,61.035,-365.234,-44.434,0.000
1757710000.935,26.855,217.773,-359.375,2.930,0.000
1757710000.939,-41.504,255.859,-432.129,-52.246,0.000
1757710000.943,-105.469,33.203,-460.449,-109.375,0.000
1757710000.947,-57.129,-24.414,-417.969,-71.777,0.000
1757710000.951,11.719,203.125,-358.398,-25.879,0.000
1757710000.955,-19.531,41.504,-475.586,-35.156,0.000
1757710000.959,-117.188,-272.461,-588.379,-100.586,0.000
1757710000.963,-69.824,-235.352,-527.344,-82.520,0.000
1757710000.967,7.812,213.379,-291.016,-18.555,0.000
1757710000.971,10.254,399.414,-381.348,-7.812,0.000
1757710000.974,-85.449,58.105,-470.703,-90.820,0.000
1757710000.978,-88.379,233.398,-308.594,-89.355,0.000
1757710000.982,-15.137,635.254,-231.445,-35.645,0.000
1757710000.986,20.020,443.359,-371.094,-6.836,0.000
1757710000.990,-63.965,-44.434,-499.023,-72.754,0.000
1757710000.994,-103.516,115.723,-328.613,-113.770,0.000
1757710000.998,-39.062,525.879,-243.164,-64.941,0.000
1757710001.002,18.555,234.863,-381.836,-10.254,0.000
1757710001.006,-47.852,-619.629,-670.410,-48.340,0.000
1757710001.010,-112.793,-479.980,-543.945,-112.793,0.000
1757710001.013,-54.688,588.867,-197.266,-74.707,0.000
1757710001.017,8.789,557.617,-292.969,-15.625,0.000
1757710001.021,-8.301,-113.281,-508.789,-28.809,0.000
1757710001.025,-100.586,-131.836,-452.637,-110.352,0.000
1757710001.029,-74.707,483.398,-245.117,-97.168,0.000
1757710001.033,6.348,470.703,-292.480,-24.902,0.000
1757710001.037,24.902,-20.508,-490.723,7.812,0.000
1757710001.041,-74.707,-323.730,-527.832,-72.754,0.000
1757710001.045,-86.426,-0.488,-326.172,-89.844,0.000
1757710001.049,-9.277,-0.488,-410.156,-23.438,0.000
1757710001.053,40.039,-611.328,-597.168,18.555,0.000
1757710001.056,-52.734,-364.746,-436.035,-53.711,0.000
1757710001.060,-103.027,176.270,-297.363,-98.633,0.000
1757710001.064,-30.273,77.148,-281.250,-49.805,0.000
1757710001.068,34.180,-114.258,-336.426,0.488,0.000
1757710001.072,-20.508,-186.035,-408.691,-31.738,0.000
1757710001.076,-104.980,-291.504,-406.250,-105.469,0.000
1757710001.080,-43.945,-363.281,-325.195,-64.941,0.000
1757710001.084,15.625,-295.898,-270.996,-6.836,0.000
1757710001.088,-0.977,-379.395,-402.832,-14.160,0.000
1757710001.092,-93.262,-618.164,-452.148,-100.586,0.000
1757710001.096,-79.590,-743.652,-392.090,-79.590,0.000
1757710001.099,-3.906,-852.051,-357.910,-7.812,0.000
1757710001.103,26.367,-712.402,-382.812,5.859,0.000
1757710001.107,-65.918,-806.641,-456.543,-65.918,0.000
1757710001.111,-85.449,-938.477,-425.781,-82.031,0.000
1757710001.115,-12.695,-603.027,-254.883,-22.949,0.000
1757710001.119,30.762,-493.652,-285.645,18.555,0.000
1757710001.123,-50.293,-922.363,-496.094,-39.062,0.000
1757710001.127,-104.004,-883.789,-411.621,-90.820,0.000
1757710001.131,-36.133,-615.723,-266.113,-44.434,0.000
1757710001.135,20.996,-869.629,-365.234,9.766,0.000
1757710001.139,-28.809,-1000.000,-568.848,-13.184,0.000
1757710001.142,-95.703,-1000.000,-550.781,-76.660,0.000
1757710001.146,-44.922,-849.121,-306.641,-47.852,0.000
1757710001.150,20.508,-615.234,-222.168,-0.977,0.000
1757710001.154,11.230,-855.957,-534.180,7.812,0.000
1757710001.158,-86.426,-961.914,-650.391,-54.199,0.000
1757710001.162,-66.406,-548.340,-242.188,-56.152,0.000
1757710001.166,12.207,-405.762,-222.656,-0.488,0.000
1757710001.170,40.527,-786.133,-425.781,20.996,0.000
1757710001.174,-56.152,-992.676,-454.102,-54.199,0.000
1757710001.178,-76.660,-729.492,-296.387,-75.195,0.000
1757710001.181,5.859,-547.363,-248.535,-8.789,0.000
1757710001.185,32.227,-820.801,-423.340,24.414,0.000
1757710001.189,-57.617,-1000.000,-552.734,-37.109,0.000
1757710001.193,-104.980,-968.262,-426.758,-91.309,0.000
1757710001.197,-41.992,-833.496,-311.523,-52.734,0.000
1757710001.201,24.902,-881.348,-514.648,21.973,0.000
1757710001.205,-17.090,-1000.000,-610.840,-7.324,0.000
1757710001.209,-104.980,-694.336,-372.070,-93.262,0.000
1757710001.213,-59.570,-460.938,-297.363,-59.082,0.000
1757710001.217,7.812,-592.773,-337.402,-8.789,0.000
1757710001.221,0.977,-672.852,-406.738,-4.883,0.000
1757710001.224,-77.148,-773.926,-456.543,-70.312,0.000
1757710001.228,-68.848,-861.328,-417.969,-65.918,0.000
1757710001.232,-0.488,-734.375,-388.184,-9.277,0.000
1757710001.236,27.832,-822.266,-469.727,15.625,0.000
1757710001.240,-57.617,-861.328,-449.219,-53.223,0.000
1757710001.244,-80.078,-780.762,-470.703,-75.684,0.000
1757710001.248,-16.602,-834.473,-519.043,-17.090,0.000
1757710001.252,36.133,-416.016,-324.707,11.230,0.000
1757710001.256,-21.484,-505.859,-461.914,-35.156,0.000
1757710001.260,-94.238,-799.316,-438.965,-84.961,0.000
1757710001.264,-30.273,-508.789,-269.043,-38.574,0.000
1757710001.267,38.086,-171.875,-266.602,17.578,0.000
1757710001.271,-3.418,-467.285,-444.824,9.277,0.000
1757710001.275,-88.379,-789.062,-460.938,-70.312,0.000
1757710001.279,-47.363,-521.484,-315.918,-56.641,0.000
1757710001.283,22.461,-442.871,-372.559,0.977,0.000
1757710001.287,30.273,-713.867,-483.887,6.348,0.000
1757710001.291,-61.035,-994.629,-660.156,-68.848,0.000
1757710001.295,-66.406,-636.230,-480.469,-76.660,0.000
1757710001.299,-3.418,19.043,-214.355,-22.949,0.000
1757710001.303,27.344,-347.168,-404.785,15.137,0.000
1757710001.306,-53.223,-756.836,-517.578,-53.223,0.000
1757710001.310,-93.750,-370.605,-337.891,-99.609,0.000
1757710001.314,-20.996,23.926,-217.285,-41.992,0.000
1757710001.318,38.574,-261.719,-364.258,3.418,0.000
1757710001.322,-20.020,-903.320,-571.289,-33.691,0.000
1757710001.326,-97.656,-648.438,-427.246,-87.402,0.000
1757710001.330,-38.086,-295.898,-285.156,-54.688,0.000
1757710001.334,26.855,-616.699,-457.031,-9.766,0.000
1757710001.338,2.930,-944.824,-675.293,-3.906,0.000
1757710001.342,-77.637,-589.355,-410.645,-78.613,0.000
1757710001.346,-50.781,-80.566,-238.770,-84.473,0.000
1757710001.349,21.484,-268.066,-280.762,-24.902,0.000
1757710001.353,62.500,-532.715,-373.535,32.227,0.000
1757710001.357,-32.715,-681.641,-476.074,-36.133,0.000
1757710001.361,-82.520,-528.320,-365.234,-95.215,0.000
1757710001.365,-12.207,-332.520,-291.016,-57.129,0.000
1757710001.369,38.086,-365.234,-331.543,-7.324,0.000
1757710001.373,-30.762,-560.547,-466.309,-62.500,0.000
1757710001.377,-70.312,-655.273,-405.762,-115.723,0.000
1757710001.381,-25.879,-764.160,-457.520,-54.688,0.000
1757710001.385,32.715,-670.898,-487.305,2.930,0.000
1757710001.388,-0.488,-260.742,-379.395,-36.621,0.000
1757710001.392,-89.355,-405.762,-429.688,-97.168,0.000
1757710001.396,-36.621,-296.875,-290.039,-59.570,0.000
1757710001.400,36.133,-17.090,-223.633,-20.508,0.000
1757710001.404,32.715,-154.785,-395.508,-17.090,0.000
1757710001.408,-41.992,-482.422,-468.750,-81.543,0.000
1757710001.412,-18.066,-434.082,-383.301,-76.172,0.000
1757710001.416,54.688,-284.180,-325.684,-8.789,0.000
1757710001.420,72.266,-474.609,-413.574,25.391,0.000
1757710001.424,-17.090,-849.609,-607.422,-50.293,0.000
1757710001.428,-43.457,-902.832,-549.316,-74.707,0.000
1757710001.431,18.555,-277.344,-246.582,-21.973,0.000
1757710001.435,65.918,-105.957,-307.617,10.742,0.000
1757710001.439,0.000,-728.027,-524.902,-34.668,0.000
1757710001.443,-58.105,-708.496,-394.043,-83.496,0.000
1757710001.447,-3.418,-325.684,-227.539,-39.551,0.000
1757710001.451,49.316,-494.141,-303.223,15.137,0.000
1757710001.455,6.836,-869.629,-477.051,-4.883,0.000
1757710001.459,-84.473,-938.965,-421.875,-71.289,0.000
1757710001.463,-41.504,-678.711,-259.766,-43.457,0.000
1757710001.467,20.996,-786.621,-305.664,13.184,0.000
1757710001.471,13.672,-1000.000,-524.414,24.902,0.000
1757710001.474,-79.102,-1000.000,-558.105,-57.617,0.000
1757710001.478,-77.148,-887.695,-315.918,-61.035,0.000
1757710001.482,-4.883,-809.082,-263.672,8.301,0.000
1757710001.486,26.367,-990.234,-487.793,43.457,0.000
1757710001.490,-56.641,-1000.000,-471.680,-28.320,0.000
1757710001.494,-91.797,-922.363,-296.387,-66.406,0.000
1757710001.498,-29.785,-917.969,-305.664,-18.555,0.000
1757710001.502,28.320,-1000.000,-401.367,33.203,0.000
1757710001.506,-35.156,-1000.000,-483.398,-4.395,0.000
1757710001.510,-106.934,-997.559,-458.008,-67.383,0.000
1757710001.513,-50.781,-1000.000,-423.340,-19.043,0.000
1757710001.517,8.789,-1000.000,-463.867,36.621,0.000
1757710001.521,-14.648,-1000.000,-505.859,10.742,0.000
1757710001.525,-103.027,-997.070,-444.336,-68.848,0.000
1757710001.529,-83.008,-1000.000,-465.820,-33.203,0.000
1757710001.533,-22.949,-975.586,-498.535,43.457,0.000
1757710001.537,1.953,-949.219,-364.746,46.875,0.000
1757710001.541,-80.078,-1000.000,-430.176,-37.109,0.000
1757710001.545,-91.309,-978.516,-355.469,-44.434,0.000
1757710001.549,-13.672,-934.082,-265.625,19.531,0.000
1757710001.553,36.621,-991.211,-368.164,63.477,0.000
1757710001.556,-40.039,-1000.000,-505.371,-9.766,0.000
1757710001.560,-90.820,-997.559,-448.730,-51.758,0.000
1757710001.564,-39.062,-1000.000,-371.582,5.859,0.000
1757710001.568,16.113,-1000.000,-375.488,45.898,0.000
1757710001.572,-29.785,-1000.000,-460.938,14.160,0.000
1757710001.576,-103.027,-1000.000,-614.746,-29.785,0.000
1757710001.580,-54.688,-997.559,-477.539,13.672,0.000
1757710001.584,5.371,-988.770,-287.109,57.617,0.000
1757710001.588,11.230,-997.559,-477.539,41.992,0.000
1757710001.592,-76.660,-992.676,-520.508,-35.645,0.000
1757710001.596,-68.848,-948.730,-297.363,-19.531,0.000
1757710001.599,-6.836,-962.891,-286.133,41.016,0.000
1757710001.603,-7.812,-1000.000,-529.297,57.129,0.000
1757710001.607,-97.656,-1000.000,-602.051,-20.020,0.000
1757710001.611,-109.375,-1000.000,-415.527,-31.738,0.000
1757710001.615,-49.805,-983.887,-273.926,21.973,0.000
1757710001.619,-2.441,-979.004,-504.395,37.598,0.000
1757710001.623,-70.801,-1000.000,-718.262,-19.043,0.000
1757710001.627,-134.766,-922.852,-376.465,-59.570,0.000
1757710001.631,-73.242,-776.855,-249.023,-4.883,0.000
1757710001.635,-5.371,-875.977,-366.699,46.387,0.000
1757710001.638,-40.039,-1000.000,-539.551,9.277,0.000
1757710001.642,-117.676,-941.895,-426.758,-56.641,0.000
1757710001.646,-73.730,-776.855,-289.551,-13.672,0.000
1757710001.650,-2.441,-882.324,-334.961,34.180,0.000
1757710001.654,6.348,-1000.000,-480.469,20.508,0.000
1757710001.658,-93.262,-997.070,-549.316,-43.457,0.000
1757710001.662,-96.191,-978.027,-355.469,-29.785,0.000
1757710001.666,-23.926,-967.773,-477.539,30.273,0.000
1757710001.670,12.207,-998.047,-582.031,48.340,0.000
1757710001.674,-71.289,-958.008,-425.293,-38.574,0.000
1757710001.678,-112.793,-889.648,-343.262,-56.152,0.000
1757710001.681,-48.828,-813.477,-299.316,7.812,0.000
1757710001.685,12.207,-799.805,-337.891,45.410,0.000
1757710001.689,-55.176,-966.797,-472.656,-13.672,0.000
1757710001.693,-133.301,-1000.000,-474.609,-64.941,0.000
1757710001.697,-72.266,-977.051,-395.996,-15.625,0.000
1757710001.701,6.836,-959.473,-384.277,15.625,0.000
1757710001.705,-9.277,-983.887,-499.023,-12.695,0.000
1757710001.709,-107.422,-1000.000,-597.168,-74.707,0.000
1757710001.713,-77.637,-921.387,-499.512,-36.133,0.000
1757710001.717,-3.418,-632.324,-270.508,-1.953,0.000
1757710001.721,9.277,-754.395,-369.141,-0.488,0.000
1757710001.724,-77.148,-1000.000,-586.426,-57.129,0.000
1757710001.728,-86.426,-885.742,-493.164,-49.805,0.000
1757710001.732,-25.391,-597.168,-205.078,7.324,0.000
1757710001.736,28.320,-787.598,-348.145,26.367,0.000
1757710001.740,-40.527,-1000.000,-509.277,-29.785,0.000
1757710001.744,-114.746,-839.844,-337.402,-68.848,0.000
1757710001.748,-72.754,-828.125,-277.832,-35.156,0.000
1757710001.752,-6.348,-984.863,-375.488,11.719,0.000
1757710001.756,-34.180,-1000.000,-649.902,-13.672,0.000
1757710001.760,-108.398,-901.855,-576.172,-71.289,0.000
1757710001.763,-59.570,-630.371,-226.562,-28.320,0.000
1757710001.767,20.996,-747.070,-316.895,30.273,0.000
1757710001.771,1.465,-1000.000,-509.277,-0.977,0.000
1757710001.775,-100.098,-965.332,-442.871,-73.730,0.000
1757710001.779,-84.961,-715.332,-258.789,-34.668,0.000
1757710001.783,-10.742,-759.766,-283.203,18.066,0.000
1757710001.787,25.879,-1000.000,-504.395,17.578,0.000
1757710001.791,-62.988,-1000.000,-528.809,-44.922,0.000
1757710001.795,-86.426,-789.551,-300.781,-44.434,0.000
1757710001.799,-14.160,-819.336,-386.719,4.395,0.000
1757710001.803,43.457,-1000.000,-585.938,26.855,0.000
1757710001.806,-35.645,-1000.000,-541.992,-36.621,0.000
1757710001.810,-106.445,-672.852,-312.012,-58.105,0.000
1757710001.814,-44.922,-679.199,-381.348,-0.488,0.000
1757710001.818,28.320,-891.602,-537.598,34.668,0.000
1757710001.822,6.836,-849.121,-449.219,-14.648,0.000
1757710001.826,-75.684,-782.715,-406.738,-72.754,0.000
1757710001.830,-42.480,-711.914,-304.199,-31.738,0.000
1757710001.834,29.785,-683.105,-289.062,14.160,0.000
1757710001.838,28.809,-775.879,-437.500,0.977,0.000
1757710001.842,-68.848,-970.215,-493.652,-64.453,0.000
1757710001.846,-72.266,-958.008,-422.363,-35.156,0.000
1757710001.849,0.000,-750.000,-298.340,23.926,0.000
1757710001.853,50.293,-583.496,-339.844,17.090,0.000
1757710001.857,-46.875,-887.695,-495.117,-70.312,0.000
1757710001.861,-96.191,-977.051,-417.969,-76.660,0.000
1757710001.865,-9.277,-583.008,-264.648,-9.766,0.000
1757710001.869,55.176,-430.664,-300.293,12.695,0.000
1757710001.873,-14.648,-849.121,-512.695,-48.828,0.000
1757710001.877,-82.520,-947.754,-470.215,-78.125,0.000
1757710001.881,-44.434,-463.379,-245.605,-27.832,0.000
1757710001.885,22.461,-585.938,-315.430,23.438,0.000
1757710001.888,9.277,-991.211,-572.754,-7.324,0.000
1757710001.892,-81.055,-999.023,-576.660,-78.613,0.000
1757710001.896,-67.383,-750.000,-349.121,-50.293,0.000
1757710001.900,2.930,-345.215,-228.516,0.977,0.000
1757710001.904,32.227,-671.387,-514.160,-5.859,0.000
1757710001.908,-70.801,-931.152,-628.906,-81.543,0.000
1757710001.912,-94.238,-465.820,-298.828,-69.336,0.000
1757710001.916,-21.973,-444.336,-255.859,-17.090,0.000
1757710001.920,30.762,-881.348,-555.176,17.578,0.000
1757710001.924,-52.734,-944.336,-673.340,-40.527,0.000
1757710001.928,-97.656,-498.047,-302.246,-79.102,0.000
1757710001.931,-34.668,-297.363,-260.254,-31.250,0.000
1757710001.935,29.785,-692.871,-434.570,7.324,0.000
1757710001.939,-20.996,-1000.000,-563.965,-38.086,0.000
1757710001.943,-97.656,-891.113,-439.453,-87.402,0.000
1757710001.947,-47.852,-480.957,-261.230,-44.922,0.000
1757710001.951,17.090,-698.730,-499.512,4.883,0.000
1757710001.955,-1.465,-944.336,-619.141,-28.320,0.000
1757710001.959,-91.797,-537.109,-378.906,-96.680,0.000
1757710001.963,-69.336,-402.832,-307.129,-59.570,0.000
1757710001.967,1.465,-519.043,-306.641,-10.254,0.000
1757710001.971,34.668,-617.188,-402.832,-8.789,0.000
1757710001.974,-59.570,-880.371,-519.043,-78.613,0.000
1757710001.978,-72.754,-848.145,-412.109,-70.801,0.000
1757710001.982,1.953,-543.457,-341.309,-18.066,0.000
1757710001.986,47.363,-705.566,-461.426,-10.254,0.000
1757710001.990,-25.879,-845.703,-475.098,-70.312,0.000
1757710001.994,-92.285,-680.664,-464.844,-93.750,0.000
1757710001.998,-36.621,-744.141,-487.793,-37.109,0.000
1757710002.002,43.457,-256.836,-266.113,-2.930,0.000
1757710002.006,-1.465,-301.270,-426.758,-52.734,0.000
1757710002.010,-100.098,-665.039,-434.570,-101.562,0.000
1757710002.014,-57.129,-343.750,-248.535,-55.664,0.000
1757710002.017,24.414,-42.480,-226.074,-6.836,0.000
1757710002.021,21.973,-389.160,-417.969,-42.969,0.000
1757710002.025,-68.848,-792.480,-488.770,-108.887,0.000
1757710002.029,-59.082,-704.102,-351.074,-57.617,0.000
1757710002.033,-6.836,-575.195,-350.586,-12.207,0.000
1757710002.037,22.461,-676.270,-459.473,-34.668,0.000
1757710002.041,-56.641,-980.957,-664.551,-91.309,0.000
1757710002.045,-89.355,-696.289,-489.258,-77.148,0.000
1757710002.049,-13.184,-6.836,-204.102,-25.879,0.000
1757710002.053,52.246,-218.750,-370.117,-16.113,0.000
1757710002.056,-23.438,-728.027,-513.672,-74.707,0.000
1757710002.060,-94.238,-516.113,-357.422,-94.727,0.000
1757710002.064,-35.645,-167.969,-231.934,-46.387,0.000
1757710002.068,38.086,-348.145,-355.957,-7.324,0.000
1757710002.072,-14.160,-907.715,-591.797,-50.293,0.000
1757710002.076,-112.305,-873.535,-502.930,-101.562,0.000
1757710002.080,-62.012,-590.332,-325.684,-50.293,0.000
1757710002.084,25.391,-755.371,-455.566,17.578,0.000
1757710002.088,26.367,-968.750,-652.344,-12.695,0.000
1757710002.092,-87.891,-697.754,-440.918,-77.637,0.000
1757710002.096,-94.727,-228.027,-270.996,-41.992,0.000
1757710002.099,-19.043,-455.078,-307.617,-9.277,0.000
1757710002.103,36.133,-761.230,-398.926,-7.812,0.000
1757710002.107,-60.547,-729.004,-438.477,-70.312,0.000
1757710002.111,-119.141,-625.000,-331.055,-93.750,0.000
1757710002.115,-45.410,-660.156,-298.828,-56.152,0.000
1757710002.119,22.949,-768.555,-342.773,-5.859,0.000
1757710002.123,-43.945,-860.840,-449.707,-56.152,0.000
1757710002.127,-116.211,-971.680,-431.641,-121.582,0.000
1757710002.131,-62.988,-994.629,-504.883,-62.012,0.000
1757710002.135,13.184,-820.801,-492.676,-12.695,0.000
1757710002.138,-0.977,-737.793,-445.312,-54.688,0.000
1757710002.142,-106.445,-941.406,-516.602,-111.816,0.000
1757710002.146,-77.637,-730.469,-359.863,-76.172,0.000
1757710002.150,-5.371,-367.676,-284.180,-10.254,0.000
1757710002.154,13.184,-354.980,-385.742,-6.348,0.000
1757710002.158,-57.617,-663.086,-489.746,-89.355,0.000
1757710002.162,-83.008,-491.699,-367.676,-79.102,0.000
1757710002.166,-23.926,-264.160,-307.129,-12.695,0.000
1757710002.170,33.203,-301.270,-387.207,-0.977,0.000
1757710002.174,-41.016,-674.805,-594.238,-76.660,0.000
1757710002.178,-96.680,-857.910,-553.223,-77.148,0.000
1757710002.181,-43.457,-41.992,-205.566,-17.090,0.000
1757710002.185,37.109,334.473,-241.211,3.906,0.000
1757710002.189,-0.977,-263.184,-493.652,-41.504,0.000
1757710002.193,-97.168,-331.543,-441.406,-89.355,0.000
1757710002.197,-45.898,52.734,-277.344,-35.645,0.000
1757710002.201,38.086,192.383,-279.297,8.789,0.000
1757710002.205,20.508,-139.160,-446.289,-19.531,0.000
1757710002.209,-76.172,-250.977,-424.805,-95.703,0.000
1757710002.213,-65.918,257.324,-251.953,-58.105,0.000
1757710002.217,1.953,374.512,-277.832,-2.930,0.000
1757710002.220,28.320,-226.562,-500.977,-15.625,0.000
1757710002.224,-67.383,-440.918,-485.840,-82.520,0.000
1757710002.228,-88.379,261.230,-239.746,-71.777,0.000
1757710002.232,-31.250,506.836,-232.910,-11.230,0.000
1757710002.236,26.367,-189.453,-439.453,-4.395,0.000
1757710002.240,-31.250,-398.926,-459.961,-83.496,0.000
1757710002.244,-62.012,313.965,-280.273,-77.637,0.000
1757710002.248,-17.578,383.301,-264.648,-12.207,0.000
1757710002.252,4.883,-132.324,-384.277,-13.184,0.000
1757710002.256,-36.621,-233.398,-482.910,-67.871,0.000
1757710002.260,-122.070,-127.930,-429.199,-115.234,0.000
1757710002.263,-96.191,-90.820,-345.703,-61.035,0.000
1757710002.267,-14.648,-239.258,-391.602,0.000,0.000
1757710002.271,-16.113,-339.355,-416.016,-25.391,0.000
1757710002.275,-139.648,-14.648,-308.105,-131.836,0.000
1757710002.279,-132.812,-134.277,-356.934,-114.746,0.000
1757710002.283,-39.062,-511.719,-435.059,-34.668,0.000
1757710002.287,-6.836,-305.664,-322.754,-19.531,0.000
1757710002.291,-97.656,-333.496,-396.973,-68.359,0.000
1757710002.295,-126.953,-458.008,-314.453,-75.195,0.000
1757710002.299,-67.383,-276.855,-190.430,-32.227,0.000
1757710002.303,24.902,-104.492,-262.207,10.742,0.000
1757710002.306,-19.531,-445.312,-448.730,-31.738,0.000
1757710002.310,-108.887,-640.137,-431.152,-77.637,0.000
1757710002.314,-51.758,-496.582,-336.914,-23.926,0.000
1757710002.318,37.109,-268.555,-313.965,18.555,0.000
1757710002.322,13.184,-315.430,-430.176,-21.973,0.000
1757710002.326,-91.797,-879.395,-621.582,-72.754,0.000
1757710002.330,-61.523,-614.746,-427.246,-24.902,0.000
1757710002.334,20.020,62.500,-181.641,10.742,0.000
1757710002.338,33.691,-348.633,-420.898,1.953,0.000
1757710002.342,-52.246,-758.789,-502.930,-64.941,0.000
1757710002.346,-49.805,-333.496,-261.719,-56.152,0.000
1757710002.349,24.414,-59.082,-224.121,7.324,0.000
1757710002.353,64.453,-549.316,-453.613,19.043,0.000
1757710002.357,-19.043,-826.660,-539.062,-55.176,0.000
1757710002.361,-59.570,-619.629,-396.484,-65.918,0.000
1757710002.365,21.973,-430.176,-290.527,3.906,0.000
1757710002.369,106.934,-592.773,-460.938,82.520,0.000
1757710002.373,61.523,-952.148,-666.504,36.621,0.000
1757710002.377,-6.348,-446.289,-370.605,-52.246,0.000
1757710002.381,37.598,117.676,-211.914,-7.812,0.000
1757710002.385,99.609,-53.711,-270.020,51.270,0.000
1757710002.388,78.613,-323.242,-430.664,26.855,0.000
1757710002.392,-20.020,-147.949,-387.207,-53.223,0.000
1757710002.396,-7.812,35.645,-272.949,-49.316,0.000
1757710002.400,62.500,-153.809,-307.617,11.230,0.000
1757710002.404,83.984,-333.008,-398.438,21.484,0.000
1757710002.408,-12.695,-555.176,-476.562,-60.547,0.000
1757710002.412,-25.879,-324.219,-321.289,-62.500,0.000
1757710002.416,51.758,-439.453,-422.363,-11.719,0.000
1757710002.420,94.238,-685.059,-542.480,3.418,0.000
1757710002.424,15.625,-227.539,-421.387,-71.289,0.000
1757710002.428,-39.062,39.551,-320.801,-105.957,0.000
1757710002.431,17.578,-58.594,-290.039,-57.617,0.000
1757710002.435,70.801,-5.859,-279.297,-24.414,0.000
1757710002.439,3.418,-2.441,-377.930,-70.801,0.000
1757710002.443,-68.848,-139.160,-384.766,-108.398,0.000
1757710002.447,-17.090,-238.281,-349.121,-64.941,0.000
1757710002.451,45.410,-110.840,-317.383,-30.273,0.000
1757710002.455,36.621,-263.672,-416.992,-53.223,0.000
1757710002.459,-62.500,-651.367,-554.688,-125.000,0.000
1757710002.463,-56.152,-688.477,-480.469,-101.074,0.000
1757710002.467,10.742,-94.727,-178.711,-45.410,0.000
1757710002.470,33.203,105.957,-278.809,-34.180,0.000
1757710002.474,-48.340,-518.555,-482.910,-116.211,0.000
1757710002.478,-63.965,-424.805,-349.121,-137.207,0.000
1757710002.482,-1.465,144.043,-173.340,-75.684,0.000
1757710002.486,53.711,79.102,-268.066,-27.832,0.000
1757710002.490,-13.184,-526.855,-479.004,-73.730,0.000
1757710002.494,-70.801,-450.195,-345.215,-116.699,0.000
1757710002.498,-14.160,22.949,-209.473,-63.965,0.000
1757710002.502,44.922,-231.934,-289.062,12.207,0.000
1757710002.506,3.418,-815.918,-610.840,-19.043,0.000
1757710002.510,-76.172,-734.375,-595.215,-102.051,0.000
1757710002.513,-35.645,33.691,-183.594,-70.312,0.000
1757710002.517,31.250,115.723,-204.102,-10.742,0.000
1757710002.521,29.297,-360.352,-419.922,-20.996,0.000
1757710002.525,-66.406,-410.156,-404.297,-106.445,0.000
1757710002.529,-57.617,-61.523,-267.578,-88.379,0.000
1757710002.533,14.160,-152.832,-308.594,-29.785,0.000
1757710002.537,32.715,-342.285,-426.758,-9.277,0.000
1757710002.541,-50.781,-506.348,-498.535,-72.754,0.000
1757710002.545,-57.129,-230.957,-356.934,-85.938,0.000
1757710002.549,3.906,-101.074,-379.883,-13.672,0.000
1757710002.553,34.668,-624.023,-528.320,16.113,0.000
1757710002.556,-15.137,-333.984,-417.480,-58.594,0.000
1757710002.560,-69.336,243.652,-301.270,-83.496,0.000
1757710002.564,-24.902,181.641,-304.688,-29.785,0.000
1757710002.568,41.992,40.039,-382.324,-0.977,0.000
1757710002.572,15.625,2.930,-437.012,-11.719,0.000
1757710002.576,-59.570,80.566,-391.113,-73.730,0.000
1757710002.580,-22.461,127.441,-303.223,-58.105,0.000
1757710002.584,17.578,187.500,-278.809,0.977,0.000
1757710002.588,25.391,53.711,-397.949,14.648,0.000
1757710002.592,-52.734,-78.613,-437.012,-73.242,0.000
1757710002.595,-62.012,-29.297,-385.254,-90.820,0.000
1757710002.599,-3.906,141.602,-308.105,-51.758,0.000
1757710002.603,23.926,435.059,-311.523,-20.508,0.000
1757710002.607,-45.410,218.262,-479.492,-87.402,0.000
1757710002.611,-87.402,-184.082,-474.609,-135.254,0.000
1757710002.615,-22.461,128.906,-308.105,-80.566,0.000
1757710002.619,37.598,627.930,-309.082,-15.137,0.000
1757710002.623,-42.969,98.145,-535.156,-71.289,0.000
1757710002.627,-110.352,-99.609,-506.348,-138.672,0.000
1757710002.631,-35.156,310.059,-331.055,-85.938,0.000
1757710002.635,33.203,182.129,-400.391,-25.391,0.000
1757710002.638,1.953,-398.438,-615.723,-35.645,0.000
1757710002.642,-78.613,-638.184,-648.438,-102.539,0.000
1757710002.646,-50.293,-326.660,-445.312,-88.867,0.000
1757710002.650,7.324,58.105,-337.891,-17.090,0.000
1757710002.654,11.719,-283.203,-564.941,19.043,0.000
1757710002.658,-66.895,-788.086,-708.496,-73.242,0.000
1757710002.662,-57.617,-134.277,-357.910,-83.008,0.000
1757710002.666,9.766,217.773,-304.688,-26.367,0.000
1757710002.670,38.574,-296.387,-462.891,4.395,0.000
1757710002.674,-35.645,-613.281,-521.973,-46.875,0.000
1757710002.678,-73.242,-301.270,-404.297,-103.027,0.000
1757710002.681,-11.230,-129.883,-335.449,-47.363,0.000
1757710002.685,37.109,-426.270,-456.543,19.043,0.000
1757710002.689,-26.855,-898.438,-616.211,-29.785,0.000
1757710002.693,-93.750,-736.816,-520.508,-110.840,0.000
1757710002.697,-24.414,-191.895,-330.566,-83.008,0.000
1757710002.701,32.227,-595.215,-562.012,-6.348,0.000
1757710002.705,-10.254,-872.559,-668.945,-12.207,0.000
1757710002.709,-100.098,-350.098,-448.730,-88.867,0.000
1757710002.713,-69.824,-205.566,-369.629,-71.289,0.000
1757710002.717,-8.789,-303.223,-363.770,-30.762,0.000
1757710002.720,-5.859,-311.523,-416.992,-13.672,0.000
1757710002.724,-86.914,-469.727,-524.414,-78.613,0.000
1757710002.728,-86.914,-603.516,-474.609,-86.914,0.000
1757710002.732,-20.508,-515.137,-415.039,-21.484,0.000
1757710002.736,12.207,-613.281,-511.719,39.551,0.000
1757710002.740,-63.965,-733.887,-505.371,-25.391,0.000
1757710002.744,-98.145,-660.645,-503.418,-104.004,0.000
1757710002.748,-32.227,-756.836,-523.926,-61.523,0.000
1757710002.752,6.836,-368.164,-337.402,-2.930,0.000
1757710002.756,-42.969,-563.477,-521.973,-17.090,0.000
1757710002.760,-124.512,-956.543,-543.945,-95.215,0.000
1757710002.763,-73.730,-500.488,-318.359,-82.520,0.000
1757710002.767,-23.438,-121.582,-256.348,-41.016,0.000
1757710002.771,-48.340,-426.758,-438.477,-44.434,0.000
1757710002.775,-117.676,-833.984,-522.949,-118.164,0.000
1757710002.779,-94.238,-538.086,-350.586,-115.723,0.000
1757710002.783,-43.945,-444.336,-360.352,-67.871,0.000
1757710002.787,-66.406,-740.723,-417.480,-49.805,0.000
1757710002.791,-171.875,-992.188,-637.695,-121.582,0.000
1757710002.795,-187.500,-725.586,-526.367,-177.246,0.000
1757710002.799,-128.906,-85.938,-204.102,-146.484,0.000
1757710002.802,-102.051,-263.672,-335.449,-75.195,0.000
1757710002.806,-187.500,-759.766,-491.211,-100.098,0.000
1757710002.810,-248.535,-786.133,-416.016,-188.477,0.000
1757710002.814,-189.941,-416.992,-252.930,-181.152,0.000
1757710002.818,-132.812,-316.895,-291.504,-117.676,0.000
1757710002.822,-186.035,-800.781,-488.770,-113.770,0.000
1757710002.826,-258.301,-797.852,-447.754,-181.641,0.000
1757710002.830,-196.289,-559.082,-319.336,-170.898,0.000
1757710002.834,-124.512,-659.180,-373.535,-99.121,0.000
1757710002.838,-125.488,-920.410,-566.406,-49.316,0.000
1757710002.842,-214.355,-666.992,-390.137,-119.629,0.000
1757710002.845,-198.730,-236.328,-227.051,-133.789,0.000
1757710002.849,-116.699,-396.973,-265.137,-72.266,0.000
1757710002.853,-88.867,-577.637,-342.285,-23.926,0.000
1757710002.857,-154.785,-577.637,-382.812,-67.383,0.000
1757710002.861,-150.391,-465.820,-275.879,-98.633,0.000
1757710002.865,-73.730,-594.238,-271.973,-39.551,0.000
1757710002.869,-17.090,-754.395,-318.359,26.367,0.000
1757710002.873,-69.336,-753.418,-435.059,-12.207,0.000
1757710002.877,-112.305,-903.320,-427.246,-68.848,0.000
1757710002.881,-16.113,-964.844,-459.961,-23.438,0.000
1757710002.885,49.316,-778.320,-473.145,40.527,0.000
1757710002.888,-6.348,-499.512,-332.031,44.922,0.000
1757710002.892,-67.383,-646.973,-405.762,-18.066,0.000
1757710002.896,-5.371,-587.891,-300.293,-5.859,0.000
1757710002.900,59.082,-358.398,-216.309,25.391,0.000
1757710002.904,62.500,-435.547,-332.520,79.590,0.000
1757710002.908,-12.207,-720.703,-430.664,32.715,0.000
1757710002.912,0.977,-726.074,-388.184,-13.672,0.000
1757710002.916,62.012,-538.086,-321.777,40.527,0.000
1757710002.920,83.984,-459.473,-318.848,102.539,0.000
1757710002.924,-0.977,-791.504,-524.414,56.152,0.000
1757710002.927,-33.203,-958.496,-545.898,-4.395,0.000
1757710002.931,45.410,-382.324,-244.629,20.020,0.000
1757710002.935,89.355,22.461,-192.871,74.219,0.000
1757710002.939,16.113,-555.664,-489.258,48.828,0.000
1757710002.943,-36.133,-695.801,-503.418,-37.598,0.000
1757710002.947,37.109,-64.941,-207.031,-23.438,0.000
1757710002.951,89.355,41.992,-203.613,41.992,0.000
1757710002.955,42.480,-474.121,-409.180,67.871,0.000
1757710002.959,-39.062,-682.617,-431.641,-16.602,0.000
1757710002.963,2.930,-198.242,-265.625,-25.879,0.000
1757710002.967,61.523,-81.055,-266.602,28.320,0.000
1757710002.970,52.734,-623.535,-465.820,70.801,0.000
1757710002.974,-36.133,-802.734,-479.492,1.953,0.000
1757710002.978,-15.625,-357.910,-316.406,-47.852,0.000
1757710002.982,73.730,-282.715,-335.449,0.488,0.000
1757710002.986,76.172,-502.441,-400.391,62.500,0.000
1757710002.990,-18.555,-604.004,-451.172,27.832,0.000
1757710002.994,-32.227,-314.453,-379.395,-53.711,0.000
1757710002.998,29.297,-118.164,-294.922,-23.926,0.000
1757710003.002,54.688,-210.449,-344.238,36.621,0.000
1757710003.006,-12.207,-299.316,-409.668,25.391,0.000
1757710003.010,-60.059,-478.027,-443.359,-55.664,0.000
1757710003.013,16.602,-415.039,-387.695,-43.945,0.000
1757710003.017,57.617,-344.727,-394.531,28.809,0.000
1757710003.021,10.254,-345.215,-426.758,51.758,0.000
1757710003.025,-56.152,-106.445,-363.281,-43.945,0.000
1757710003.029,-5.371,-158.691,-407.227,-54.199,0.000
1757710003.033,62.500,-653.320,-525.879,30.273,0.000
1757710003.037,46.387,-348.633,-359.863,91.797,0.000
1757710003.041,-35.156,-20.996,-375.977,38.574,0.000
1757710003.045,-19.043,-177.246,-343.750,-12.695,0.000
1757710003.049,42.969,-20.996,-256.836,18.066,0.000
1757710003.052,77.148,168.457,-290.039,43.945,0.000
1757710003.056,11.719,-90.820,-423.340,11.230,0.000
1757710003.060,-26.367,-385.742,-458.496,-43.457,0.000
1757710003.064,35.645,-330.566,-346.680,-23.438,0.000
1757710003.068,58.594,-57.617,-291.992,53.223,0.000
1757710003.072,0.977,-31.250,-397.949,66.895,0.000
1757710003.076,-64.453,-676.758,-624.512,-40.039,0.000
1757710003.080,-4.395,-544.922,-460.938,-34.668,0.000
1757710003.084,51.270,336.914,-191.406,27.344,0.000
1757710003.088,8.789,47.852,-389.160,46.387,0.000
1757710003.092,-79.590,-511.719,-503.906,-25.391,0.000
1757710003.095,-35.156,-122.070,-289.551,-73.730,0.000
1757710003.099,41.992,283.691,-210.449,-33.691,0.000
1757710003.103,35.156,-181.641,-387.695,38.574,0.000
1757710003.107,-59.570,-603.027,-520.996,-2.930,0.000
1757710003.111,-58.594,-406.738,-412.109,-49.805,0.000
1757710003.115,32.715,7.324,-243.164,-16.113,0.000
1757710003.119,52.734,-38.086,-383.301,32.715,0.000
1757710003.123,-30.762,-676.270,-649.902,18.555,0.000
1757710003.127,-73.730,-248.535,-390.137,-68.848,0.000
1757710003.131,-6.836,420.898,-180.176,-46.387,0.000
1757710003.135,42.480,79.590,-298.340,7.812,0.000
1757710003.138,-15.625,-252.930,-445.312,-12.207,0.000
1757710003.142,-96.680,-39.062,-359.863,-76.172,0.000
1757710003.146,-42.969,-47.363,-315.430,-76.172,0.000
1757710003.150,10.254,-196.777,-311.523,-35.156,0.000
1757710003.154,-22.949,-156.738,-346.680,11.230,0.000
1757710003.158,-105.957,-393.555,-474.121,-44.434,0.000
1757710003.162,-70.312,-270.508,-341.309,-88.867,0.000
1757710003.166,0.488,-463.867,-436.035,-66.895,0.000
1757710003.170,-22.461,-583.008,-507.324,-20.508,0.000
1757710003.174,-115.234,-38.086,-357.422,-61.523,0.000
1757710003.177,-114.258,-120.117,-361.328,-120.117,0.000
1757710003.181,-38.574,-354.004,-310.547,-82.520,0.000
1757710003.185,-15.137,-403.809,-277.344,-3.418,0.000
1757710003.189,-89.355,-579.102,-392.578,-15.625,0.000
1757710003.193,-137.695,-753.418,-438.477,-102.051,0.000
1757710003.197,-56.152,-725.586,-372.559,-66.895,0.000
1757710003.201,-1.953,-549.316,-333.496,-3.418,0.000
1757710003.205,-49.805,-705.078,-431.641,-1.465,0.000
1757710003.209,-118.164,-1000.000,-567.871,-67.383,0.000
1757710003.213,-57.617,-901.367,-493.652,-72.266,0.000
1757710003.217,-0.488,-587.891,-269.043,-19.043,0.000
1757710003.220,-35.156,-575.195,-345.703,40.527,0.000
1757710003.224,-108.887,-854.492,-502.930,-25.879,0.000
1757710003.228,-79.590,-729.492,-387.695,-95.703,0.000
1757710003.232,-15.137,-358.398,-232.910,-35.645,0.000
1757710003.236,-2.930,-560.547,-330.566,37.109,0.000
1757710003.240,-75.684,-921.387,-504.395,-13.672,0.000
1757710003.244,-87.891,-755.371,-385.254,-75.195,0.000
1757710003.248,-11.719,-448.242,-286.621,-35.645,0.000
1757710003.252,13.672,-705.078,-351.074,17.578,0.000
1757710003.256,-59.570,-1000.000,-630.859,6.348,0.000
1757710003.260,-114.746,-880.859,-646.973,-61.523,0.000
1757710003.263,-38.086,-356.934,-244.629,-44.434,0.000
1757710003.267,10.742,-229.004,-276.367,20.020,0.000
1757710003.271,-33.203,-659.668,-446.777,20.996,0.000
1757710003.275,-93.750,-744.629,-433.105,-63.965,0.000
1757710003.279,-46.875,-413.574,-297.363,-80.078,0.000
1757710003.283,0.977,-426.758,-299.316,-15.625,0.000
1757710003.287,-24.414,-764.160,-426.758,41.504,0.000
1757710003.291,-104.492,-978.027,-510.742,-26.855,0.000
1757710003.295,-81.055,-746.094,-381.836,-72.754,0.000
1757710003.299,-0.488,-679.199,-374.512,-16.113,0.000
1757710003.302,12.695,-797.363,-433.105,50.293,0.000
1757710003.306,-73.730,-626.953,-403.809,5.859,0.000
1757710003.310,-100.586,-400.879,-323.730,-76.172,0.000
1757710003.314,-31.250,-571.289,-419.922,-36.621,0.000
1757710003.318,-18.555,-754.883,-498.047,48.340,0.000
1757710003.322,-77.148,-479.980,-372.559,55.176,0.000
1757710003.326,-113.281,-498.047,-412.109,-47.363,0.000
1757710003.330,-45.410,-616.211,-335.938,-59.570,0.000
1757710003.334,1.953,-538.574,-275.879,-9.277,0.000
1757710003.338,-30.762,-475.586,-355.469,30.762,0.000
1757710003.342,-105.469,-748.535,-462.891,-40.527,0.000
1757710003.345,-63.477,-911.133,-464.844,-66.895,0.000
1757710003.349,17.090,-762.207,-352.539,-6.836,0.000
1757710003.353,10.254,-453.613,-308.594,35.156,0.000
1757710003.357,-83.984,-631.348,-464.355,-14.160,0.000
1757710003.361,-68.359,-844.727,-464.844,-60.059,0.000
1757710003.365,19.531,-461.914,-268.066,-14.648,0.000
1757710003.369,25.879,-369.629,-307.129,44.922,0.000
1757710003.373,-55.176,-880.859,-522.461,22.461,0.000
1757710003.377,-83.496,-758.789,-441.406,-61.523,0.000
1757710003.381,3.906,-270.996,-289.062,-27.344,0.000
1757710003.385,37.598,-456.543,-351.074,34.180,0.000
1757710003.388,-35.645,-843.262,-512.207,23.926,0.000
1757710003.392,-96.191,-915.527,-534.668,-51.758,0.000
1757710003.396,-31.250,-548.340,-310.547,-55.176,0.000
1757710003.400,14.160,-147.461,-195.312,5.371,0.000
1757710003.404,-16.113,-549.316,-478.027,51.270,0.000
1757710003.408,-86.426,-949.707,-657.227,-7.324,0.000
1757710003.412,-66.406,-549.316,-331.543,-57.617,0.000
1757710003.416,1.953,-294.434,-276.855,-26.855,0.000
1757710003.420,3.418,-526.367,-318.848,20.996,0.000
1757710003.424,-89.844,-900.391,-463.867,-17.578,0.000
1757710003.427,-102.051,-792.480,-438.477,-67.871,0.000
1757710003.431,-12.695,-390.137,-256.348,-36.621,0.000
1757710003.435,15.625,-585.938,-340.332,20.020,0.000
1757710003.439,-82.520,-1000.000,-528.320,13.184,0.000
1757710003.443,-125.488,-854.492,-454.590,-70.801,0.000
1757710003.447,-26.855,-368.652,-257.324,-72.266,0.000
1757710003.451,3.906,-660.156,-471.680,-5.371,0.000
1757710003.455,-60.059,-923.828,-599.121,9.766,0.000
1757710003.459,-107.910,-540.527,-403.809,-82.031,0.000
1757710003.463,-45.898,-405.273,-333.008,-81.543,0.000
1757710003.467,11.230,-421.387,-295.410,-7.324,0.000
1757710003.470,-29.297,-440.918,-339.355,43.457,0.000
1757710003.474,-119.629,-568.359,-414.551,-17.090,0.000
1757710003.478,-80.078,-723.145,-390.625,-62.500,0.000
1757710003.482,-1.465,-759.277,-384.277,-24.414,0.000
1757710003.486,-13.672,-744.141,-415.039,38.574,0.000
1757710003.490,-100.098,-873.535,-492.188,-1.465,0.000
1757710003.494,-110.352,-867.676,-556.641,-83.984,0.000
1757710003.498,-17.090,-811.035,-484.375,-39.551,0.000
1757710003.502,10.254,-353.027,-269.043,13.672,0.000
1757710003.506,-79.590,-271.484,-389.648,16.602,0.000
1757710003.509,-113.770,-671.387,-459.961,-47.852,0.000
1757710003.513,-26.855,-459.473,-310.547,-34.668,0.000
1757710003.517,-6.348,-157.715,-234.863,14.648,0.000
1757710003.521,-49.805,-449.707,-390.137,18.066,0.000
1757710003.525,-94.238,-796.387,-468.750,-57.129,0.000
1757710003.529,-43.945,-567.871,-322.266,-69.824,0.000
1757710003.533,14.160,-487.305,-318.848,-9.277,0.000
1757710003.537,-18.555,-783.691,-436.035,43.945,0.000
1757710003.541,-98.145,-939.453,-555.176,-9.766,0.000
1757710003.545,-56.152,-534.180,-372.559,-61.035,0.000
1757710003.549,19.531,-40.039,-214.844,-24.414,0.000
1757710003.552,18.555,-210.449,-315.918,38.086,0.000
1757710003.556,-73.730,-772.461,-525.879,20.020,0.000
1757710003.560,-95.703,-589.355,-398.438,-67.383,0.000
1757710003.564,4.883,-55.664,-212.402,-54.688,0.000
1757710003.568,45.410,-206.543,-292.969,36.133,0.000
1757710003.572,-18.555,-817.383,-514.648,72.754,0.000
1757710003.576,-80.078,-829.102,-506.836,-20.508,0.000
1757710003.580,-16.602,-450.684,-319.824,-51.270,0.000
1757710003.584,32.715,-547.852,-381.836,-11.230,0.000
1757710003.588,-27.832,-857.422,-553.223,32.715,0.000
1757710003.592,-118.652,-666.504,-428.711,-35.645,0.000
1757710003.595,-77.148,-405.762,-333.496,-54.199,0.000
1757710003.599,-14.648,-491.699,-353.516,-8.301,0.000
1757710003.603,-33.203,-476.074,-370.605,20.996,0.000
1757710003.607,-112.305,-482.910,-378.418,-28.320,0.000
1757710003.611,-82.520,-395.996,-326.172,-74.219,0.000
1757710003.615,-0.977,-412.598,-281.250,-22.461,0.000
1757710003.619,-8.301,-466.797,-274.414,35.156,0.000
1757710003.623,-96.191,-639.160,-417.969,10.742,0.000
1757710003.627,-98.633,-951.660,-458.496,-60.547,0.000
1757710003.631,-3.418,-1000.000,-495.117,-21.973,0.000
1757710003.635,16.113,-807.617,-468.750,46.387,0.000
1757710003.638,-57.129,-619.629,-351.562,54.688,0.000
1757710003.642,-96.680,-812.012,-438.965,-18.066,0.000
1757710003.646,-24.902,-802.246,-352.539,-26.367,0.000
1757710003.650,26.855,-765.137,-272.461,17.578,0.000
1757710003.654,-9.766,-812.012,-332.031,55.664,0.000
1757710003.658,-86.426,-957.031,-448.730,-16.602,0.000
1757710003.662,-38.086,-896.973,-386.719,-60.547,0.000
1757710003.666,28.809,-852.539,-295.898,-7.324,0.000
1757710003.670,20.996,-976.562,-340.332,52.246,0.000
1757710003.674,-72.266,-1000.000,-544.922,13.672,0.000
1757710003.677,-68.848,-907.227,-499.023,-47.852,0.000
1757710003.681,35.645,-679.199,-227.051,-29.297,0.000
1757710003.685,53.711,-814.453,-207.031,23.926,0.000
1757710003.689,-47.363,-1000.000,-538.574,51.270,0.000
1757710003.693,-80.566,-981.934,-645.020,-15.137,0.000
1757710003.697,8.789,-795.410,-261.719,-25.879,0.000
1757710003.701,50.293,-768.555,-222.168,30.273,0.000
1757710003.705,-19.043,-964.355,-433.594,51.270,0.000
1757710003.709,-92.285,-989.258,-461.914,-41.992,0.000
1757710003.713,-16.602,-841.309,-262.695,-66.895,0.000
1757710003.717,36.133,-829.102,-253.906,-7.324,0.000
1757710003.720,-5.371,-975.098,-466.309,50.781,0.000
1757710003.724,-83.984,-1000.000,-526.855,-15.625,0.000
1757710003.728,-39.062,-862.305,-314.941,-85.938,0.000
1757710003.732,41.504,-794.922,-270.996,-35.156,0.000
1757710003.736,33.691,-946.777,-458.496,36.621,0.000
1757710003.740,-57.617,-1000.000,-512.207,20.020,0.000
1757710003.744,-57.129,-915.039,-350.098,-67.871,0.000
1757710003.748,21.484,-876.953,-306.641,-46.875,0.000
1757710003.752,25.391,-964.355,-325.684,23.438,0.000
1757710003.756,-51.758,-977.051,-423.340,-4.883,0.000
1757710003.760,-82.031,-987.793,-476.074,-78.125,0.000
1757710003.763,12.207,-982.910,-356.934,-43.945,0.000
1757710003.767,44.922,-1000.000,-392.578,1.953,0.000
1757710003.771,-8.301,-1000.000,-457.031,40.527,0.000
1757710003.775,-77.148,-986.816,-386.230,-30.273,0.000
1757710003.779,-26.367,-1000.000,-411.621,-90.820,0.000
1757710003.783,31.250,-963.379,-484.375,-39.551,0.000
1757710003.787,-0.977,-885.742,-308.594,26.367,0.000
1757710003.791,-83.984,-962.891,-363.770,-27.344,0.000
1757710003.795,-50.781,-1000.000,-362.305,-65.430,0.000
1757710003.799,28.809,-891.602,-245.117,-25.391,0.000
1757710003.802,29.785,-891.602,-253.418,-17.578,0.000
1757710003.806,-54.199,-1000.000,-409.180,-14.160,0.000
1757710003.810,-84.961,-1000.000,-428.711,-61.035,0.000
1757710003.814,8.301,-994.141,-336.426,-75.684,0.000
1757710003.818,40.039,-994.141,-312.012,-27.344,0.000
1757710003.822,-57.129,-997.559,-431.152,-10.742,0.000
1757710003.826,-97.656,-1000.000,-646.973,-84.961,0.000
1757710003.830,-6.836,-950.684,-486.328,-93.262,0.000
1757710003.834,41.016,-936.523,-216.797,-20.996,0.000
1757710003.838,-3.418,-1000.000,-429.199,44.922,0.000
1757710003.842,-90.332,-999.512,-504.883,-33.203,0.000
1757710003.845,-31.250,-991.699,-303.711,-95.703,0.000
1757710003.849,40.039,-995.605,-300.781,-32.715,0.000
1757710003.853,1.465,-1000.000,-477.539,36.621,0.000
1757710003.857,-93.750,-1000.000,-585.449,-15.137,0.000
1757710003.861,-74.219,-1000.000,-504.883,-80.078,0.000
1757710003.865,17.090,-1000.000,-319.824,-71.289,0.000
1757710003.869,14.648,-1000.000,-437.500,-7.812,0.000
1757710003.873,-84.961,-1000.000,-745.605,2.441,0.000
1757710003.877,-102.539,-997.070,-518.066,-91.797,0.000
1757710003.881,3.418,-994.141,-270.996,-94.727,0.000
1757710003.885,18.555,-1000.000,-376.953,-9.277,0.000
1757710003.888,-84.473,-1000.000,-521.484,33.691,0.000
1757710003.892,-121.094,-1000.000,-467.285,-51.758,0.000
1757710003.896,-22.461,-1000.000,-356.445,-81.543,0.000
1757710003.900,26.855,-1000.000,-363.770,-42.969,0.000
1757710003.904,-36.133,-1000.000,-467.285,-2.930,0.000
1757710003.908,-119.629,-1000.000,-575.684,-52.734,0.000
1757710003.912,-55.664,-1000.000,-418.945,-71.289,0.000
1757710003.916,10.742,-1000.000,-537.598,-29.785,0.000
1757710003.920,-25.391,-1000.000,-603.516,-7.324,0.000
1757710003.924,-110.840,-1000.000,-451.660,-21.973,0.000
1757710003.927,-88.867,-1000.000,-463.379,-78.613,0.000
1757710003.931,-3.906,-1000.000,-398.926,-53.223,0.000
1757710003.935,-14.648,-1000.000,-358.887,20.020,0.000
1757710003.939,-113.770,-1000.000,-464.844,0.977,0.000
1757710003.943,-113.770,-1000.000,-532.715,-64.453,0.000
1757710003.947,-18.555,-1000.000,-436.523,-62.012,0.000
1757710003.951,6.836,-1000.000,-350.098,-15.137,0.000
1757710003.955,-66.895,-1000.000,-477.051,48.828,0.000
1757710003.959,-124.023,-1000.000,-605.469,-15.137,0.000
1757710003.963,-43.945,-995.605,-491.699,-46.387,0.000
1757710003.967,9.277,-997.070,-299.805,-2.930,0.000
1757710003.970,-43.457,-1000.000,-343.262,39.551,0.000
1757710003.974,-114.258,-1000.000,-610.840,-20.020,0.000
1757710003.978,-55.176,-994.141,-612.793,-72.754,0.000
1757710003.982,20.508,-988.281,-278.809,-23.926,0.000
1757710003.986,-9.766,-1000.000,-381.836,41.504,0.000
1757710003.990,-110.352,-1000.000,-562.012,7.812,0.000
1757710003.994,-99.609,-1000.000,-406.250,-66.406,0.000
1757710003.998,-8.789,-1000.000,-325.195,-33.203,0.000
1757710004.002,9.277,-999.023,-399.414,11.719,0.000
1757710004.006,-83.008,-1000.000,-652.344,0.977,0.000
1757710004.010,-127.441,-990.234,-653.809,-63.477,0.000
1757710004.013,-27.832,-965.820,-268.555,-37.598,0.000
1757710004.017,15.625,-985.352,-320.312,37.109,0.000
1757710004.021,-65.918,-1000.000,-489.746,75.684,0.000
1757710004.025,-124.512,-999.512,-446.777,6.348,0.000
1757710004.029,-42.969,-1000.000,-291.992,-40.039,0.000
1757710004.033,-9.277,-1000.000,-300.781,5.371,0.000
1757710004.037,-54.688,-1000.000,-433.594,42.969,0.000
1757710004.041,-102.051,-1000.000,-507.324,-21.484,0.000
1757710004.045,-57.617,-1000.000,-418.945,-76.660,0.000
1757710004.049,23.926,-1000.000,-386.719,-32.715,0.000
1757710004.052,0.977,-1000.000,-476.562,32.227,0.000
1757710004.056,-84.961,-1000.000,-466.309,1.953,0.000
1757710004.060,-70.312,-1000.000,-339.355,-78.125,0.000
1757710004.064,11.719,-1000.000,-362.793,-41.016,0.000
1757710004.068,19.043,-1000.000,-425.293,46.875,0.000
1757710004.072,-67.871,-1000.000,-364.258,46.875,0.000
1757710004.076,-90.332,-1000.000,-382.324,-44.922,0.000
1757710004.080,10.742,-1000.000,-287.109,-51.270,0.000
1757710004.084,49.316,-1000.000,-258.789,11.230,0.000
1757710004.088,-17.578,-1000.000,-332.031,57.129,0.000
1757710004.092,-80.566,-1000.000,-432.617,-14.160,0.000
1757710004.095,-22.949,-1000.000,-472.168,-51.270,0.000
1757710004.099,41.992,-1000.000,-375.977,-7.812,0.000
1757710004.103,11.230,-1000.000,-312.988,29.297,0.000
1757710004.107,-83.008,-1000.000,-433.594,-7.324,0.000
1757710004.111,-49.805,-1000.000,-472.656,-53.711,0.000
1757710004.115,42.969,-1000.000,-250.488,-11.230,0.000
1757710004.119,28.320,-1000.000,-176.758,35.156,0.000
1757710004.123,-72.754,-1000.000,-424.316,24.902,0.000
1757710004.127,-64.453,-1000.000,-444.336,-45.898,0.000
1757710004.131,30.762,-1000.000,-266.602,-43.457,0.000
1757710004.135,41.504,-1000.000,-299.316,23.926,0.000
1757710004.138,-51.270,-1000.000,-474.121,58.105,0.000
1757710004.142,-109.375,-1000.000,-515.137,-14.160,0.000
1757710004.146,-20.996,-1000.000,-271.484,-42.969,0.000
1757710004.150,38.086,-1000.000,-195.801,-17.090,0.000
1757710004.154,-33.203,-1000.000,-498.047,9.277,0.000
1757710004.158,-125.000,-1000.000,-604.980,-57.129,0.000
1757710004.162,-53.711,-1000.000,-270.508,-89.355,0.000
1757710004.166,41.016,-1000.000,-200.684,-24.414,0.000
1757710004.170,3.906,-1000.000,-330.078,21.484,0.000
1757710004.174,-103.027,-1000.000,-435.547,-0.488,0.000
1757710004.177,-79.102,-1000.000,-334.473,-59.082,0.000
1757710004.181,13.184,-1000.000,-241.699,-37.109,0.000
1757710004.185,14.648,-1000.000,-348.633,27.832,0.000
1757710004.189,-84.961,-1000.000,-494.141,42.969,0.000
1757710004.193,-108.398,-1000.000,-445.801,-34.668,0.000
1757710004.197,-2.930,-1000.000,-258.301,-59.570,0.000
1757710004.201,23.438,-1000.000,-464.844,-6.836,0.000
1757710004.205,-58.594,-1000.000,-596.191,30.762,0.000
1757710004.209,-109.863,-1000.000,-402.344,-19.531,0.000
1757710004.213,-26.855,-1000.000,-319.336,-48.828,0.000
1757710004.217,23.926,-1000.000,-299.805,-13.184,0.000
1757710004.220,-39.551,-1000.000,-322.754,53.711,0.000
1757710004.224,-118.164,-1000.000,-415.527,5.371,0.000
1757710004.228,-59.570,-1000.000,-407.227,-46.875,0.000
1757710004.232,21.484,-1000.000,-344.238,-8.301,0.000
1757710004.236,-6.348,-1000.000,-382.812,36.133,0.000
1757710004.240,-93.262,-999.512,-420.898,10.254,0.000
1757710004.244,-73.730,-1000.000,-463.867,-69.824,0.000
1757710004.248,26.367,-994.629,-500.000,-55.664,0.000
1757710004.252,39.062,-989.746,-296.387,4.395,0.000
1757710004.256,-65.918,-1000.000,-387.207,21.973,0.000
1757710004.259,-111.328,-1000.000,-577.148,-35.645,0.000
1757710004.263,-10.254,-1000.000,-453.613,-35.156,0.000
1757710004.267,29.297,-1000.000,-277.344,10.742,0.000
1757710004.271,-51.758,-1000.000,-371.582,46.387,0.000
1757710004.275,-106.934,-1000.000,-444.824,-18.066,0.000
1757710004.279,-19.043,-1000.000,-346.191,-53.223,0.000
1757710004.283,26.367,-1000.000,-328.613,-14.160,0.000
1757710004.287,-17.090,-996.094,-403.809,51.758,0.000
1757710004.291,-100.586,-1000.000,-584.961,20.996,0.000
1757710004.295,-70.312,-925.781,-419.434,-60.547,0.000
1757710004.299,21.484,-880.371,-211.914,-29.297,0.000
1757710004.302,22.949,-982.422,-316.895,37.598,0.000
1757710004.306,-65.918,-1000.000,-525.391,26.367,0.000
1757710004.310,-82.031,-983.887,-396.973,-51.758,0.000
1757710004.314,1.953,-947.266,-234.375,-36.133,0.000
1757710004.318,13.184,-977.051,-332.520,27.832,0.000
1757710004.322,-82.520,-1000.000,-489.746,49.316,0.000
1757710004.326,-121.094,-1000.000,-508.301,-32.227,0.000
1757710004.330,-16.602,-985.352,-341.309,-79.590,0.000
1757710004.334,32.227,-972.656,-372.559,-25.879,0.000
1757710004.338,-39.062,-985.840,-562.988,18.555,0.000
1757710004.342,-113.770,-852.539,-430.664,-49.316,0.000
1757710004.345,-59.082,-516.602,-257.324,-66.406,0.000
1757710004.349,6.836,-541.992,-345.215,-10.254,0.000
1757710004.353,-17.090,-637.207,-428.223,18.555,0.000
1757710004.357,-104.004,-495.117,-402.832,-33.203,0.000
1757710004.361,-82.031,-289.062,-364.258,-77.148,0.000
1757710004.365,3.906,-225.098,-308.105,-33.203,0.000
1757710004.369,0.977,-112.305,-280.273,25.391,0.000
1757710004.373,-89.844,-143.555,-451.660,26.855,0.000
1757710004.377,-115.234,-193.359,-474.609,-50.781,0.000
1757710004.381,-33.203,-287.598,-470.215,-51.270,0.000
1757710004.384,-3.418,-163.574,-470.215,10.254,0.000
1757710004.388,-77.148,504.395,-332.031,24.902,0.000
1757710004.392,-123.047,438.477,-428.711,-58.594,0.000
1757710004.396,-32.715,489.746,-348.633,-88.379,0.000
1757710004.400,9.277,760.742,-245.605,-39.551,0.000
1757710004.404,-51.270,763.672,-314.453,29.297,0.000
1757710004.408,-131.836,444.824,-442.383,0.977,0.000
1757710004.412,-90.332,394.531,-407.227,-15.137,0.000
1757710004.416,-20.020,558.594,-328.613,34.180,0.000
1757710004.420,-39.551,661.621,-306.641,31.738,0.000
1757710004.424,-124.512,306.152,-508.301,-77.148,0.000
1757710004.427,-114.258,-206.543,-565.430,-168.945,0.000
1757710004.431,-33.691,239.258,-338.867,-141.113,0.000
1757710004.435,-27.832,690.430,-276.855,-67.383,0.000
1757710004.439,-113.281,300.293,-467.285,4.883,0.000
1757710004.443,-171.875,85.449,-513.184,-41.016,0.000
1757710004.447,-108.887,475.098,-274.414,-77.637,0.000
1757710004.451,-77.637,532.227,-271.973,-90.332,0.000
1757710004.455,-144.043,104.980,-395.508,-99.609,0.000
1757710004.459,-210.938,-66.406,-425.293,-142.090,0.000
1757710004.463,-153.320,367.676,-290.039,-146.484,0.000
1757710004.467,-125.977,465.332,-260.742,-140.137,0.000
1757710004.470,-198.242,-182.129,-482.910,-105.469,0.000
1757710004.474,-276.367,-468.750,-540.039,-173.340,0.000
1757710004.478,-227.539,242.676,-296.387,-260.742,0.000
1757710004.482,-158.691,514.648,-283.203,-190.918,0.000
1757710004.486,-187.988,-38.574,-437.012,-103.027,0.000
1757710004.490,-282.227,-287.109,-471.680,-139.160,0.000
1757710004.494,-264.648,205.078,-358.398,-237.305,0.000
1757710004.498,-171.875,362.305,-310.059,-213.867,0.000
1757710004.502,-154.785,186.523,-331.543,-145.020,0.000
1757710004.506,-245.605,99.121,-404.297,-115.723,0.000
1757710004.509,-270.508,-84.961,-455.078,-214.844,0.000
1757710004.513,-161.133,-72.754,-389.160,-217.285,0.000
1757710004.517,-122.559,-89.355,-388.672,-93.262,0.000
1757710004.521,-191.895,-125.000,-426.270,-6.348,0.000
1757710004.525,-249.023,2.441,-400.391,-104.980,0.000
1757710004.529,-153.809,-103.027,-446.777,-183.594,0.000
1757710004.533,-72.266,-348.633,-510.742,-143.555,0.000
1757710004.537,-122.559,0.977,-336.914,-84.961,0.000
1757710004.541,-207.520,-56.641,-434.570,-87.402,0.000
1757710004.545,-157.715,-387.207,-477.051,-122.559,0.000
1757710004.549,-69.824,-154.297,-370.117,-121.094,0.000
1757710004.552,-62.988,55.176,-330.078,-72.754,0.000
1757710004.556,-150.391,-232.910,-472.656,-40.039,0.000
1757710004.560,-159.668,-560.547,-542.969,-85.449,0.000
1757710004.564,-58.105,-535.156,-460.938,-68.848,0.000
1757710004.568,-26.367,-314.453,-404.785,-50.781,0.000
1757710004.572,-96.680,-299.316,-436.035,-28.809,0.000
1757710004.576,-126.465,-828.125,-719.238,-29.785,0.000
1757710004.580,-20.508,-732.422,-634.766,-30.273,0.000
1757710004.584,29.297,-66.406,-323.242,-40.039,0.000
1757710004.588,-27.344,-293.457,-478.027,14.648,0.000
1757710004.592,-83.008,-662.109,-604.004,21.973,0.000
1757710004.595,-25.391,-357.910,-477.539,-29.297,0.000
1757710004.599,54.199,-179.199,-450.195,25.879,0.000
1757710004.603,31.738,-395.996,-519.531,104.492,0.000
1757710004.607,-65.918,-512.695,-647.949,60.059,0.000
1757710004.611,-30.762,-382.812,-638.672,-18.555,0.000
1757710004.615,83.496,4.395,-470.703,14.648,0.000
1757710004.619,86.914,148.926,-546.875,126.953,0.000
1757710004.623,-43.457,-289.551,-756.348,104.980,0.000
1757710004.627,-43.945,196.289,-596.680,-50.293,0.000
1757710004.631,81.055,926.270,-456.543,-34.668,0.000
1757710004.634,98.633,783.691,-512.695,64.941,0.000
1757710004.638,16.602,730.469,-594.727,96.680,0.000
1757710004.642,-23.926,930.664,-593.750,20.020,0.000
1757710004.646,65.918,960.938,-538.574,-21.973,0.000
1757710004.650,104.492,933.594,-493.652,24.902,0.000
1757710004.654,30.762,940.918,-540.527,99.121,0.000
1757710004.658,-49.805,941.895,-687.988,56.641,0.000
1757710004.662,33.203,966.797,-595.703,13.672,0.000
1757710004.666,126.953,917.480,-683.594,51.758,0.000
1757710004.670,72.266,909.180,-693.848,108.887,0.000
1757710004.674,-61.523,977.051,-558.105,83.496,0.000
1757710004.677,-27.832,962.891,-599.609,-9.277,0.000
1757710004.681,96.191,960.449,-511.230,-15.625,0.000
1757710004.685,91.797,965.332,-429.199,33.691,0.000
1757710004.689,-26.855,967.285,-532.715,90.820,0.000
1757710004.693,-58.594,965.332,-625.977,22.461,0.000
1757710004.697,50.293,962.891,-545.410,-15.625,0.000
1757710004.701,77.148,965.332,-477.051,62.988,0.000
1757710004.705,-31.738,966.309,-539.551,84.473,0.000
1757710004.709,-84.961,963.867,-671.387,-26.855,0.000
1757710004.713,14.160,956.543,-669.922,-44.922,0.000
1757710004.716,58.105,964.355,-410.156,2.930,0.000
1757710004.720,-9.277,967.773,-383.789,61.035,0.000
1757710004.724,-91.797,964.844,-614.258,32.715,0.000
1757710004.728,-33.203,965.332,-575.195,-28.320,0.000
1757710004.732,54.199,966.797,-383.301,-6.348,0.000
1757710004.736,15.625,968.262,-397.461,56.641,0.000
1757710004.740,-120.117,941.406,-514.648,57.617,0.000
1757710004.744,-96.191,952.637,-506.836,-26.855,0.000
1757710004.748,29.297,971.191,-410.156,-6.348,0.000
1757710004.752,28.320,963.379,-375.488,61.523,0.000
1757710004.756,-90.332,958.496,-615.723,63.965,0.000
1757710004.759,-122.559,961.914,-658.691,-22.949,0.000
1757710004.763,-7.812,967.773,-332.520,-50.781,0.000
1757710004.767,18.555,965.820,-353.027,2.441,0.000
1757710004.771,-80.078,966.309,-416.504,65.430,0.000
1757710004.775,-143.066,966.309,-408.691,14.648,0.000
1757710004.779,-33.203,966.309,-336.914,-30.762,0.000
1757710004.783,17.578,966.309,-307.617,3.906,0.000
1757710004.787,-58.594,966.309,-339.355,55.664,0.000
1757710004.791,-157.227,966.309,-445.801,29.297,0.000
1757710004.795,-97.656,966.309,-398.438,-30.762,0.000
1757710004.799,24.902,966.309,-357.910,-41.992,0.000
1757710004.802,-8.789,966.309,-330.566,8.301,0.000
1757710004.806,-135.254,966.309,-344.238,34.180,0.000
1757710004.810,-112.305,966.309,-351.074,-41.504,0.000
1757710004.814,-2.441,966.309,-391.602,-18.066,0.000
1757710004.818,-1.465,966.309,-459.961,53.711,0.000
1757710004.822,-114.258,966.309,-343.750,64.453,0.000
1757710004.826,-135.742,966.309,-380.371,-8.789,0.000
1757710004.830,-26.367,966.309,-298.340,-30.273,0.000
1757710004.834,1.465,966.309,-195.801,10.254,0.000
1757710004.838,-93.750,966.309,-140.137,46.875,0.000
1757710004.842,-155.762,966.309,-285.645,5.859,0.000
1757710004.845,-57.617,966.309,-426.270,-36.621,0.000
1757710004.849,-0.977,966.309,-312.988,-27.832,0.000
1757710004.853,-58.594,966.309,36.621,24.414,0.000
1757710004.857,-157.227,966.309,-144.043,23.926,0.000
1757710004.861,-98.633,966.309,-426.270,-28.809,0.000
1757710004.865,3.906,966.309,-127.441,-16.602,0.000
1757710004.869,-29.785,966.309,121.582,14.648,0.000
1757710004.873,-133.789,965.820,-119.629,18.555,0.000
1757710004.877,-129.883,964.355,-366.211,-44.922,0.000
1757710004.881,-14.648,965.820,-250.000,-36.133,0.000
1757710004.884,-0.977,966.797,-148.438,22.461,0.000
1757710004.888,-117.676,965.820,-232.422,73.730,0.000
1757710004.892,-161.133,964.844,-379.395,16.602,0.000
1757710004.896,-36.133,965.332,-254.395,-40.527,0.000
1757710004.900,16.113,967.773,85.938,-20.508,0.000
1757710004.904,-71.289,964.844,37.598,27.344,0.000
1757710004.908,-161.133,954.102,-386.719,9.766,0.000
1757710004.912,-92.285,963.867,-139.648,-41.992,0.000
1757710004.916,3.418,968.750,138.672,-20.996,0.000
1757710004.920,-36.621,955.078,24.902,13.184,0.000
1757710004.924,-153.809,960.449,-200.684,-10.254,0.000
1757710004.927,-121.094,968.262,-207.520,-42.969,0.000
1757710004.931,-6.348,965.332,32.227,-9.277,0.000
1757710004.935,-26.367,962.891,-9.766,27.832,0.000
1757710004.939,-140.625,961.914,-281.738,8.301,0.000
1757710004.943,-140.137,958.008,-321.289,-76.660,0.000
1757710004.947,-28.809,997.070,27.832,-69.336,0.000
1757710004.951,-2.441,798.828,-151.367,-2.930,0.000
1757710004.955,-104.004,790.039,-286.133,45.898,0.000
1757710004.959,-160.156,995.605,-75.684,-20.020,0.000
1757710004.963,-53.711,947.754,-64.941,-47.363,0.000
1757710004.967,16.113,825.195,-92.285,3.906,0.000
1757710004.970,-48.828,901.367,27.832,63.965,0.000
1757710004.974,-138.184,797.363,-24.414,24.414,0.000
1757710004.978,-73.242,401.855,-291.016,-31.738,0.000
1757710004.982,12.695,397.461,-78.125,2.441,0.000
1757710004.986,-32.715,350.586,76.172,50.293,0.000
1757710004.990,-145.020,17.090,-174.805,35.156,0.000
1757710004.994,-102.051,-131.836,-358.398,-47.363,0.000
1757710004.998,34.180,-238.770,-322.266,-59.082,0.000
1757710005.002,43.945,131.348,18.066,20.996,0.000
1757710005.006,-88.867,277.344,161.133,93.262,0.000
1757710005.009,-130.859,-269.043,-253.418,12.207,0.000
1757710005.013,-4.883,-222.656,-227.051,-56.152,0.000
1757710005.017,36.133,189.941,206.543,-3.418,0.000
1757710005.021,-45.898,17.090,145.508,78.125,0.000
1757710005.025,-116.699,-478.516,-140.625,25.391,0.000
1757710005.029,-45.410,-446.289,-111.816,-29.297,0.000
1757710005.033,14.160,-240.234,50.293,16.113,0.000
1757710005.037,-43.945,-244.141,62.500,60.547,0.000
1757710005.041,-119.629,-645.508,-311.035,32.715,0.000
1757710005.045,-55.176,-713.867,-406.738,-24.414,0.000
1757710005.049,28.320,-75.195,93.750,-16.602,0.000
1757710005.052,4.395,-53.711,139.648,45.898,0.000
1757710005.056,-109.375,-375.977,-132.812,53.711,0.000
1757710005.060,-99.121,-415.039,-164.551,-22.461,0.000
1757710005.064,22.949,-215.332,87.891,-19.043,0.000
1757710005.068,25.879,-248.535,155.273,60.547,0.000
1757710005.072,-82.520,-598.145,-114.746,119.629,0.000
1757710005.076,-117.188,-613.770,-245.117,8.789,0.000
1757710005.080,-0.488,-430.176,-91.309,-50.781,0.000
1757710005.084,48.340,-461.426,-33.691,13.184,0.000
1757710005.088,-31.738,-635.742,-160.156,84.961,0.000
1757710005.091,-98.633,-446.777,-204.590,32.715,0.000
1757710005.095,-8.789,-65.430,80.566,-39.062,0.000
1757710005.099,68.359,-275.391,65.430,5.371,0.000
1757710005.103,16.113,-518.066,-66.895,72.266,0.000
1757710005.107,-81.543,-392.090,-15.137,88.867,0.000
1757710005.111,-48.340,-245.605,32.227,22.949,0.000
1757710005.115,62.500,-338.379,29.785,-12.695,0.000
1757710005.119,52.246,-299.805,104.004,42.969,0.000
1757710005.123,-53.223,-324.707,39.062,65.430,0.000
1757710005.127,-61.035,-534.668,-207.031,-26.855,0.000
1757710005.131,42.480,-753.418,-367.188,-46.875,0.000
1757710005.134,61.523,-580.566,-208.496,0.488,0.000
1757710005.138,-44.434,-7.812,143.066,59.082,0.000
1757710005.142,-93.750,-219.238,-36.621,30.762,0.000
1757710005.146,3.906,-332.031,-125.000,-14.160,0.000
1757710005.150,46.387,-107.910,80.078,-4.883,0.000
1757710005.154,-25.879,-72.266,183.594,50.781,0.000
1757710005.158,-111.328,-409.668,-130.371,34.668,0.000
1757710005.162,-48.828,-405.762,-162.598,-30.273,0.000
1757710005.166,44.922,-154.785,52.734,-29.785,0.000
1757710005.170,-5.859,-50.293,118.164,46.875,0.000
1757710005.174,-126.953,-247.070,-117.188,64.453,0.000
1757710005.177,-73.730,-551.270,-375.000,-40.039,0.000
1757710005.181,46.875,57.129,13.184,-48.340,0.000
1757710005.185,14.648,467.773,244.629,50.293,0.000
1757710005.189,-93.750,34.180,-29.297,63.477,0.000
1757710005.193,-96.191,-162.598,-212.891,-56.641,0.000
1757710005.197,4.395,156.250,70.801,-83.008,0.000
1757710005.201,31.250,236.328,211.914,-30.273,0.000
1757710005.205,-71.777,-95.703,18.066,49.805,0.000
1757710005.209,-131.348,-274.902,-153.809,20.996,0.000
1757710005.213,-25.879,-90.332,12.695,-66.895,0.000
1757710005.216,29.785,-77.637,135.254,-65.430,0.000
1757710005.220,-34.180,-468.750,-130.859,34.180,0.000
1757710005.224,-126.953,-581.543,-398.438,23.926,0.000
1757710005.228,-59.570,-64.941,-37.109,-54.688,0.000
1757710005.232,28.320,-42.969,131.836,-17.578,0.000
1757710005.236,-17.090,-214.355,30.273,48.340,0.000
1757710005.240,-127.441,-293.457,-52.246,37.109,0.000
1757710005.244,-92.285,-225.098,36.133,-57.617,0.000
1757710005.248,18.066,-301.270,59.570,-42.480,0.000
1757710005.252,5.859,-421.875,62.012,44.434,0.000
1757710005.256,-117.676,-347.168,99.609,49.805,0.000
1757710005.259,-129.395,-559.082,-176.270,-51.270,0.000
1757710005.263,8.301,-532.715,-217.285,-59.570,0.000
1757710005.267,25.391,-462.891,-123.535,0.488,0.000
1757710005.271,-76.172,-444.824,-41.016,46.387,0.000
1757710005.275,-131.348,-311.035,-81.543,-17.578,0.000
1757710005.279,-34.668,-349.609,-87.891,-77.637,0.000
1757710005.283,24.414,-496.094,-109.863,-44.434,0.000
1757710005.287,-45.898,-212.891,80.078,30.762,0.000
1757710005.291,-135.742,-236.816,120.605,19.531,0.000
1757710005.295,-61.523,-560.547,-71.777,-51.758,0.000
1757710005.299,44.922,-491.211,-23.926,-35.645,0.000
1757710005.302,18.555,-238.770,183.105,10.742,0.000
1757710005.306,-109.375,-455.078,88.379,7.324,0.000
1757710005.310,-107.910,-744.141,-164.551,-66.406,0.000
1757710005.314,11.230,-691.406,-106.934,-70.801,0.000
1757710005.318,15.137,-516.113,102.539,-16.113,0.000
1757710005.322,-92.285,-442.871,125.000,52.734,0.000
1757710005.326,-120.605,-843.262,-302.246,20.996,0.000
1757710005.330,-8.301,-718.750,-238.281,-10.742,0.000
1757710005.334,37.109,-113.281,236.328,9.766,0.000
1757710005.338,-62.500,-316.406,120.605,42.480,0.000
1757710005.341,-136.719,-712.402,-144.531,-21.973,0.000
1757710005.345,-41.992,-492.188,2.441,-105.957,0.000
1757710005.349,39.062,-253.906,221.680,-64.941,0.000
1757710005.353,-33.691,-529.297,108.398,4.883,0.000
1757710005.357,-148.926,-709.961,-20.508,-5.859,0.000
1757710005.361,-83.496,-666.992,-12.695,-68.359,0.000
1757710005.365,29.297,-374.023,183.594,-55.664,0.000
1757710005.369,-0.488,-332.031,187.012,16.602,0.000
1757710005.373,-114.258,-803.711,-183.594,38.574,0.000
1757710005.377,-100.098,-534.180,-25.391,-62.012,0.000
1757710005.381,28.809,-212.402,241.211,-79.590,0.000
1757710005.384,39.551,-505.859,127.441,-11.230,0.000
1757710005.388,-79.102,-539.062,121.582,43.945,0.000
1757710005.392,-114.746,-413.574,171.387,0.488,0.000
1757710005.396,19.531,-377.441,211.914,-17.578,0.000
1757710005.400,75.195,-461.914,200.684,7.812,0.000
1757710005.404,-25.391,-446.777,188.477,40.527,0.000
1757710005.408,-97.656,-580.566,107.422,-2.441,0.000
1757710005.412,-15.625,-524.902,174.316,-58.594,0.000
1757710005.416,32.715,-685.059,45.410,-2.441,0.000
1757710005.420,-10.254,-691.406,-11.719,86.914,0.000
1757710005.424,-104.492,-226.562,220.215,65.918,0.000
1757710005.427,-49.805,-391.113,177.734,-35.156,0.000
1757710005.431,56.641,-476.074,240.723,-7.812,0.000
1757710005.435,38.086,-369.141,309.570,42.480,0.000
1757710005.439,-79.590,-528.809,219.727,49.805,0.000
1757710005.443,-101.562,-677.734,145.996,-27.832,0.000
1757710005.447,40.527,-601.074,182.617,-67.383,0.000
1757710005.451,62.988,-438.477,270.508,24.414,0.000
1757710005.455,-47.363,-582.031,218.750,79.590,0.000
1757710005.459,-102.051,-784.668,111.328,-9.766,0.000
1757710005.463,-8.301,-788.086,79.102,-76.172,0.000
1757710005.466,51.270,-375.000,255.859,-48.828,0.000
1757710005.470,-33.691,-156.738,390.137,19.043,0.000
1757710005.474,-137.207,-664.062,147.461,-6.348,0.000
1757710005.478,-53.223,-688.965,145.508,-76.660,0.000
1757710005.482,26.855,-361.328,362.305,-99.121,0.000
1757710005.486,-30.762,-414.062,379.395,-50.781,0.000
1757710005.490,-147.949,-710.938,169.434,-11.719,0.000
1757710005.494,-119.629,-845.703,124.512,-52.246,0.000
1757710005.498,7.812,-630.859,284.180,-57.129,0.000
1757710005.502,0.488,-614.258,316.895,-41.016,0.000
1757710005.506,-129.883,-865.234,62.500,-1.465,0.000
1757710005.509,-162.109,-786.621,12.695,-48.828,0.000
1757710005.513,-32.715,-389.648,322.266,-91.797,0.000
1757710005.517,20.020,-383.301,351.074,-111.816,0.000
1757710005.521,-79.102,-783.203,70.312,-56.152,0.000
1757710005.525,-146.484,-812.500,23.926,-43.457,0.000
1757710005.529,-48.828,-457.031,286.621,-90.820,0.000
1757710005.533,5.371,-492.188,250.000,-67.871,0.000
1757710005.537,-68.848,-671.387,210.449,-34.180,0.000
1757710005.541,-151.367,-828.125,144.531,-9.277,0.000
1757710005.545,-90.332,-691.895,166.504,-53.223,0.000
1757710005.548,4.883,-658.691,213.379,-103.027,0.000
1757710005.552,-16.602,-841.309,49.316,-51.758,0.000
1757710005.556,-133.301,-609.863,89.844,-12.695,0.000
1757710005.560,-113.281,-359.375,252.441,-84.961,0.000
1757710005.564,14.160,-502.441,209.961,-50.293,0.000
1757710005.568,2.930,-523.438,250.977,4.395,0.000
1757710005.572,-119.629,-395.508,284.180,20.020,0.000
1757710005.576,-143.066,-528.320,226.074,-30.273,0.000
1757710005.580,-17.578,-651.855,187.012,-80.566,0.000
1757710005.584,36.133,-596.680,221.680,-67.383,0.000
1757710005.588,-56.152,-434.082,310.059,-0.488,0.000
1757710005.591,-140.137,-588.867,252.441,-1.953,0.000
1757710005.595,-41.992,-937.500,18.555,-33.203,0.000
1757710005.599,41.992,-737.793,98.633,-11.719,0.000
1757710005.603,-15.625,-342.285,377.441,29.297,0.000
1757710005.607,-129.395,-696.777,196.777,37.109,0.000
1757710005.611,-83.496,-810.547,203.613,-38.086,0.000
1757710005.615,55.664,-479.004,338.867,-62.012,0.000
1757710005.619,49.805,-363.281,374.512,6.348,0.000
1757710005.623,-98.633,-680.176,242.676,52.246,0.000
1757710005.627,-100.586,-809.082,195.801,3.906,0.000
1757710005.631,38.574,-534.668,346.680,-31.738,0.000
1757710005.634,69.824,-591.309,343.262,16.602,0.000
1757710005.638,-46.875,-811.035,259.277,95.703,0.000
1757710005.642,-92.773,-890.625,158.203,19.531,0.000
1757710005.646,31.738,-653.320,267.578,-25.879,0.000
1757710005.650,86.914,-382.324,413.574,50.293,0.000
1757710005.654,1.465,-619.141,285.645,73.730,0.000
1757710005.658,-100.586,-886.719,140.137,-14.648,0.000
1757710005.662,-37.109,-680.664,255.371,-47.363,0.000
1757710005.666,55.664,-500.488,362.793,1.465,0.000
1757710005.670,20.996,-640.625,310.547,43.945,0.000
1757710005.674,-86.914,-856.445,219.727,32.715,0.000
1757710005.677,-53.711,-763.184,291.992,-39.062,0.000
1757710005.681,58.105,-645.508,376.465,-25.391,0.000
1757710005.685,51.270,-767.578,351.562,33.203,0.000
1757710005.689,-74.707,-999.023,225.098,62.012,0.000
1757710005.693,-97.168,-875.977,248.535,22.461,0.000
1757710005.697,25.391,-600.586,390.137,15.625,0.000
1757710005.701,62.500,-831.055,227.051,43.945,0.000
1757710005.705,-21.973,-859.375,199.707,72.754,0.000
1757710005.709,-87.891,-565.430,339.355,2.441,0.000
1757710005.713,-1.465,-597.168,319.336,-60.547,0.000
1757710005.716,66.406,-742.676,301.270,-11.719,0.000
1757710005.720,-17.090,-706.543,323.730,47.852,0.000
1757710005.724,-116.699,-657.715,302.734,30.273,0.000
1757710005.728,-33.691,-795.410,252.441,-54.688,0.000
1757710005.732,58.594,-752.441,288.086,-46.387,0.000
1757710005.736,6.348,-701.172,318.359,49.805,0.000
1757710005.740,-116.699,-821.777,242.188,64.941,0.000
1757710005.744,-87.891,-847.168,204.102,-53.223,0.000
1757710005.748,35.645,-824.219,275.879,-76.172,0.000
1757710005.752,29.785,-501.953,383.301,11.230,0.000
1757710005.756,-96.191,-395.996,366.699,68.848,0.000
1757710005.759,-104.004,-773.438,208.984,-28.320,0.000
1757710005.763,26.367,-710.938,270.508,-91.309,0.000
1757710005.767,52.734,-454.102,406.250,-20.996,0.000
1757710005.771,-49.316,-649.902,348.633,57.129,0.000
1757710005.775,-104.980,-893.066,200.195,-12.695,0.000
1757710005.779,-9.277,-733.398,246.582,-75.195,0.000
1757710005.783,44.434,-689.453,306.152,-22.461,0.000
1757710005.787,-41.992,-783.691,323.730,22.461,0.000
1757710005.791,-140.625,-955.078,41.992,-29.785,0.000
1757710005.795,-67.383,-795.410,-24.414,-118.652,0.000
1757710005.798,35.156,-399.902,376.953,-63.965,0.000
1757710005.802,-9.766,-544.434,360.840,21.484,0.000
1757710005.806,-137.207,-873.047,239.258,14.648,0.000
1757710005.810,-109.375,-836.426,260.254,-60.547,0.000
1757710005.814,30.273,-587.402,368.164,-85.449,0.000
1757710005.818,42.969,-690.918,332.031,-28.320,0.000
1757710005.822,-88.867,-915.527,199.219,37.109,0.000
1757710005.826,-122.070,-905.273,204.102,-21.973,0.000
1757710005.830,15.137,-817.871,286.621,-64.453,0.000
1757710005.834,50.781,-833.008,282.227,-21.484,0.000
1757710005.838,-69.824,-882.812,199.707,64.453,0.000
1757710005.841,-138.184,-668.945,232.422,-2.930,0.000
1757710005.845,-26.367,-464.844,344.238,-116.699,0.000
1757710005.849,53.711,-628.906,281.738,-78.125,0.000
1757710005.853,-28.809,-684.570,282.227,-12.207,0.000
1757710005.857,-145.996,-640.137,277.344,9.277,0.000
1757710005.861,-68.359,-631.348,268.555,-23.926,0.000
1757710005.865,41.992,-665.039,256.348,-36.133,0.000
1757710005.869,5.859,-642.578,295.410,-10.742,0.000
1757710005.873,-118.164,-657.715,280.273,-4.883,0.000
1757710005.877,-112.305,-896.973,226.562,-61.035,0.000
1757710005.881,7.324,-968.750,108.398,-68.848,0.000
1757710005.884,21.484,-853.516,44.922,-61.035,0.000
1757710005.888,-101.562,-610.352,293.457,-9.277,0.000
1757710005.892,-148.926,-706.543,264.648,-4.395,0.000
1757710005.896,-3.906,-770.996,286.133,-26.367,0.000
1757710005.900,54.688,-647.461,354.980,-3.418,0.000
1757710005.904,-63.477,-695.801,316.406,-7.812,0.000
1757710005.908,-159.180,-893.066,203.613,-55.176,0.000
1757710005.912,-50.293,-886.719,215.332,-98.145,0.000
1757710005.916,60.059,-790.527,289.551,-66.406,0.000
1757710005.920,-7.812,-770.020,302.246,27.832,0.000
1757710005.923,-145.508,-928.223,201.660,46.875,0.000
1757710005.927,-87.402,-953.613,21.484,-44.434,0.000
1757710005.931,57.617,-500.000,232.422,-68.359,0.000
1757710005.935,39.062,-351.562,431.641,-41.992,0.000
1757710005.939,-99.609,-742.188,213.379,-17.090,0.000
1757710005.943,-115.234,-930.664,142.090,-46.387,0.000
1757710005.947,26.855,-611.328,351.074,-47.852,0.000
1757710005.951,60.059,-461.426,409.668,-6.836,0.000
1757710005.955,-65.918,-752.930,240.723,45.410,0.000
1757710005.959,-127.441,-886.719,183.594,-5.371,0.000
1757710005.963,0.000,-592.285,336.914,-75.195,0.000
1757710005.966,77.637,-517.578,382.812,-42.480,0.000
1757710005.970,-29.785,-828.613,162.109,31.738,0.000
1757710005.974,-139.160,-889.160,95.703,28.809,0.000
1757710005.978,-45.898,-516.113,329.102,-54.688,0.000
1757710005.982,50.293,-417.480,377.441,-56.641,0.000
1757710005.986,-12.207,-684.082,297.852,11.719,0.000
1757710005.990,-134.277,-691.895,245.117,29.785,0.000
1757710005.994,-89.844,-522.461,317.871,-43.457,0.000
1757710005.998,35.645,-591.309,334.961,-56.641,0.000
1757710006.002,20.020,-583.008,358.887,-9.277,0.000
1757710006.006,-105.469,-531.738,337.891,4.883,0.000
1757710006.009,-114.258,-734.375,263.184,-63.477,0.000
1757710006.013,19.531,-666.504,323.730,-87.402,0.000
1757710006.017,50.781,-559.570,349.121,-50.293,0.000
1757710006.021,-66.895,-500.488,351.074,19.531,0.000
1757710006.025,-122.559,-404.297,371.582,-18.066,0.000
1757710006.029,-2.930,-511.719,332.520,-65.430,0.000
1757710006.033,62.988,-726.074,310.547,-22.949,0.000
1757710006.037,-13.672,-369.141,411.621,37.598,0.000
1757710006.041,-115.723,-241.699,368.652,36.621,0.000
1757710006.045,-46.387,-517.090,274.902,-52.734,0.000
1757710006.048,75.195,-391.113,358.887,-43.457,0.000
1757710006.052,26.855,-336.914,421.875,17.090,0.000
1757710006.056,-121.094,-489.258,367.676,14.648,0.000
1757710006.060,-85.938,-669.922,216.309,-43.945,0.000
1757710006.064,60.059,-654.297,252.441,-52.734,0.000
1757710006.068,59.082,-334.473,426.758,-7.812,0.000
1757710006.072,-74.707,-270.020,416.992,46.875,0.000
1757710006.076,-98.145,-762.207,199.219,19.531,0.000
1757710006.080,42.480,-666.992,267.090,-21.973,0.000
1757710006.084,100.586,-33.203,504.395,-9.277,0.000
1757710006.088,-33.203,-275.879,411.621,27.832,0.000
1757710006.091,-130.859,-568.359,351.074,-18.066,0.000
1757710006.095,11.719,-320.801,420.410,-78.125,0.000
1757710006.099,87.402,-186.035,466.797,-57.129,0.000
1757710006.103,-14.160,-469.238,407.715,27.344,0.000
1757710006.107,-141.113,-648.926,304.199,18.555,0.000
1757710006.111,-66.895,-565.430,326.660,-50.781,0.000
1757710006.115,62.988,-392.578,418.945,-44.434,0.000
1757710006.119,32.227,-401.367,413.086,13.184,0.000
1757710006.123,-94.238,-726.074,320.312,45.410,0.000
1757710006.127,-91.309,-455.566,375.488,-51.758,0.000
1757710006.131,36.133,-32.227,486.816,-66.895,0.000
1757710006.134,49.316,-285.156,411.621,-37.109,0.000
1757710006.138,-96.191,-443.848,371.582,-3.906,0.000
1757710006.142,-145.020,-399.414,388.672,-27.344,0.000
1757710006.146,0.488,-340.820,433.594,-66.895,0.000
1757710006.150,64.453,-381.836,406.250,-42.480,0.000
1757710006.154,-33.691,-462.402,375.000,-14.160,0.000
1757710006.158,-127.930,-600.586,343.750,-41.992,0.000
1757710006.162,-21.973,-533.203,370.605,-72.754,0.000
1757710006.166,77.148,-653.809,299.805,-40.527,0.000
1757710006.170,6.836,-625.977,333.008,17.578,0.000
1757710006.173,-136.719,-289.551,435.547,13.184,0.000
1757710006.177,-74.219,-453.125,369.141,-65.918,0.000
1757710006.181,66.895,-525.391,442.871,-89.844,0.000
1757710006.185,30.273,-420.410,474.609,-37.598,0.000
1757710006.189,-106.445,-481.934,433.594,-5.371,0.000
1757710006.193,-93.750,-659.668,367.188,-48.828,0.000
1757710006.197,57.617,-722.656,354.980,-50.781,0.000
1757710006.201,89.355,-595.215,443.848,-35.156,0.000
1757710006.205,-39.062,-622.070,411.133,31.738,0.000
1757710006.209,-104.004,-818.359,320.312,-5.371,0.000
1757710006.213,6.836,-820.312,330.078,-44.922,0.000
1757710006.216,59.570,-468.750,445.801,-27.344,0.000
1757710006.220,-9.766,-443.848,457.031,2.930,0.000
1757710006.224,-107.422,-846.191,314.453,-3.906,0.000
1757710006.228,-24.902,-700.195,366.211,-57.617,0.000
1757710006.232,88.379,-381.348,502.441,-40.039,0.000
1757710006.236,33.203,-465.332,492.676,19.043,0.000
1757710006.240,-112.305,-806.641,311.523,19.043,0.000
1757710006.244,-74.219,-769.043,329.102,-77.637,0.000
1757710006.248,73.242,-542.480,467.773,-72.266,0.000
1757710006.252,55.664,-712.402,446.289,-6.836,0.000
1757710006.256,-94.238,-965.820,207.520,37.109,0.000
1757710006.259,-110.840,-770.996,190.918,20.508,0.000
1757710006.263,37.109,-315.430,488.770,-19.531,0.000
1757710006.267,74.219,-421.387,477.539,-38.574,0.000
1757710006.271,-41.016,-681.152,429.199,-16.602,0.000
1757710006.275,-108.398,-805.176,354.980,-39.062,0.000
1757710006.279,7.324,-692.383,403.320,-76.172,0.000
1757710006.283,77.148,-588.867,449.219,-23.926,0.000
1757710006.287,-33.691,-705.078,424.805,49.316,0.000
1757710006.291,-156.738,-890.137,344.727,0.488,0.000
1757710006.295,-75.684,-794.434,357.910,-44.434,0.000
1757710006.298,53.711,-658.203,422.363,-37.109,0.000
1757710006.302,12.695,-820.312,326.660,-46.387,0.000
1757710006.306,-140.137,-627.930,357.910,-42.969,0.000
1757710006.310,-111.328,-490.723,426.270,-76.660,0.000
1757710006.314,27.832,-644.043,409.668,-78.613,0.000
1757710006.318,20.996,-661.133,427.246,-53.711,0.000
1757710006.322,-107.910,-593.262,447.266,-13.184,0.000
1757710006.326,-137.695,-684.570,414.062,-34.668,0.000
1757710006.330,0.000,-769.043,368.164,-75.195,0.000
1757710006.334,59.570,-784.668,371.094,-51.270,0.000
1757710006.338,-62.988,-604.004,433.105,2.930,0.000
1757710006.341,-159.180,-635.742,405.762,-40.039,0.000
1757710006.345,-32.715,-867.188,302.246,-99.609,0.000
1757710006.349,60.547,-723.633,350.586,-72.266,0.000
1757710006.353,-25.879,-414.062,476.074,5.371,0.000
1757710006.357,-149.902,-615.234,388.184,0.488,0.000
1757710006.361,-86.914,-857.422,255.371,-84.961,0.000
1757710006.365,41.504,-645.508,336.914,-99.609,0.000
1757710006.369,6.836,-419.434,478.027,-43.457,0.000
1757710006.373,-141.602,-582.520,367.188,7.324,0.000
1757710006.377,-124.023,-801.270,324.219,-63.965,0.000
1757710006.381,11.230,-527.832,438.477,-69.824,0.000
1757710006.384,21.973,-517.578,423.340,-43.945,0.000
1757710006.388,-106.934,-758.301,342.285,-40.039,0.000
1757710006.392,-151.367,-777.344,306.641,-83.008,0.000
1757710006.396,-8.301,-558.594,400.391,-83.984,0.000
1757710006.400,56.641,-295.410,479.980,-31.250,0.000
1757710006.404,-65.430,-567.871,385.742,21.973,0.000
1757710006.408,-161.621,-903.320,266.602,-4.395,0.000
1757710006.412,-39.062,-479.492,401.855,-93.750,0.000
1757710006.416,54.688,-225.586,490.723,-87.891,0.000
1757710006.420,-37.109,-559.082,376.953,-19.531,0.000
1757710006.424,-172.363,-757.324,315.430,0.000,0.000
1757710006.427,-99.121,-551.270,394.043,-59.082,0.000
1757710006.431,42.969,-416.992,449.219,-58.105,0.000
1757710006.435,9.277,-597.656,376.953,-2.441,0.000
1757710006.439,-141.602,-817.383,283.203,19.531,0.000
1757710006.443,-138.672,-790.039,291.992,-49.805,0.000
1757710006.447,15.625,-512.695,396.484,-93.262,0.000
1757710006.451,40.039,-702.148,298.340,-73.242,0.000
1757710006.455,-97.656,-810.059,267.090,-35.156,0.000
1757710006.459,-157.715,-443.848,397.461,-84.961,0.000
1757710006.463,-22.461,-448.730,391.113,-106.934,0.000
1757710006.466,43.457,-493.652,410.645,-67.871,0.000
1757710006.470,-61.523,-434.570,441.895,-15.137,0.000
1757710006.474,-177.246,-552.246,371.094,-35.156,0.000
1757710006.478,-97.168,-731.445,332.031,-97.656,0.000
1757710006.482,24.902,-612.305,378.906,-84.473,0.000
1757710006.486,-12.695,-576.172,385.254,-38.574,0.000
1757710006.490,-160.156,-598.633,354.492,-11.719,0.000
1757710006.494,-125.000,-549.805,344.727,-85.449,0.000
1757710006.498,20.020,-766.602,322.266,-73.730,0.000
1757710006.502,9.277,-528.320,408.203,-6.348,0.000
1757710006.506,-130.371,-281.738,444.336,7.324,0.000
1757710006.509,-141.113,-585.449,312.988,-54.199,0.000
1757710006.513,3.906,-521.973,360.352,-87.402,0.000
1757710006.517,48.828,-301.758,478.027,-49.805,0.000
1757710006.521,-74.219,-438.477,430.664,8.789,0.000
1757710006.525,-160.645,-694.336,283.203,-38.086,0.000
1757710006.529,-37.598,-571.289,347.168,-96.680,0.000
1757710006.533,67.383,-475.586,432.129,-27.832,0.000
1757710006.537,-8.301,-569.336,403.809,17.090,0.000
1757710006.541,-135.254,-836.914,168.457,-21.973,0.000
1757710006.545,-41.992,-727.539,173.340,-79.590,0.000
1757710006.548,92.285,-132.324,493.652,-87.891,0.000
1757710006.552,31.250,-293.457,441.895,-19.531,0.000
1757710006.556,-117.188,-696.777,325.195,51.758,0.000
1757710006.560,-84.473,-542.969,352.051,-15.137,0.000
1757710006.564,62.012,-229.492,463.867,-61.523,0.000
1757710006.568,62.500,-352.539,439.453,-13.672,0.000
1757710006.572,-88.379,-646.973,305.176,23.438,0.000
1757710006.576,-117.676,-578.613,329.102,-27.344,0.000
1757710006.580,33.203,-421.387,412.598,-71.777,0.000
1757710006.584,90.332,-443.848,398.438,-50.781,0.000
1757710006.588,-28.809,-692.871,304.199,33.203,0.000
1757710006.591,-135.742,-538.086,329.102,6.348,0.000
1757710006.595,-29.785,-175.781,445.801,-61.523,0.000
1757710006.599,67.871,-362.305,414.062,-22.949,0.000
1757710006.603,-7.812,-484.375,396.484,26.367,0.000
1757710006.607,-147.461,-424.316,385.254,14.160,0.000
1757710006.611,-86.914,-527.344,354.980,-39.551,0.000
1757710006.615,52.734,-571.289,347.656,-52.246,0.000
1757710006.619,20.020,-408.691,398.926,-24.414,0.000
1757710006.623,-137.207,-408.203,377.930,-4.395,0.000
1757710006.627,-131.348,-668.457,282.715,-62.012,0.000
1757710006.631,20.508,-573.730,354.980,-55.176,0.000
1757710006.634,48.828,-278.809,444.336,-13.184,0.000
1757710006.638,-88.379,-293.457,415.039,3.906,0.000
1757710006.642,-146.484,-473.633,369.141,-28.320,0.000
1757710006.646,-15.137,-586.914,388.184,-61.523,0.000
1757710006.650,39.551,-375.488,434.082,-48.828,0.000
1757710006.654,-67.871,-267.090,429.199,-19.043,0.000
1757710006.658,-162.109,-504.883,325.684,-33.691,0.000
1757710006.662,-62.012,-785.156,200.195,-84.473,0.000
1757710006.666,37.109,-592.773,292.480,-92.285,0.000
1757710006.670,-28.809,-275.879,413.086,-65.918,0.000
1757710006.674,-171.387,-469.238,313.965,-51.758,0.000
1757710006.677,-116.699,-811.035,145.996,-63.965,0.000
1757710006.681,33.203,-403.809,306.152,-76.172,0.000
1757710006.685,9.766,60.547,512.207,-91.309,0.000
1757710006.689,-151.367,-389.648,319.336,-55.176,0.000
1757710006.693,-153.809,-525.391,294.434,-77.637,0.000
1757710006.697,5.859,-184.570,457.520,-104.980,0.000
1757710006.701,35.156,-183.105,471.680,-85.938,0.000
1757710006.705,-94.727,-510.254,332.031,3.418,0.000
1757710006.709,-172.363,-577.637,296.387,-22.949,0.000
1757710006.713,-45.410,-291.504,422.363,-124.023,0.000
1757710006.716,31.250,-224.121,482.422,-92.285,0.000
1757710006.720,-69.824,-685.547,231.445,16.113,0.000
1757710006.724,-194.824,-868.652,118.652,-31.250,0.000
1757710006.728,-93.262,-290.039,386.719,-155.273,0.000
1757710006.732,36.621,-100.586,439.453,-119.629,0.000
1757710006.736,-25.391,-364.258,420.898,-72.754,0.000
1757710006.740,-167.969,-432.617,362.305,-73.242,0.000
1757710006.744,-121.094,-293.945,371.094,-118.652,0.000
1757710006.748,24.414,-270.020,417.969,-125.000,0.000
1757710006.752,15.137,-352.539,405.762,-88.379,0.000
1757710006.756,-141.113,-363.770,384.277,-63.965,0.000
1757710006.759,-172.852,-497.559,317.383,-125.000,0.000
1757710006.763,-8.301,-423.340,338.867,-178.223,0.000
1757710006.767,52.246,-390.137,357.910,-124.023,0.000
1757710006.771,-80.566,-362.305,366.211,-69.824,0.000
1757710006.775,-169.434,-282.227,356.445,-110.840,0.000
1757710006.779,-50.781,-414.062,332.520,-173.340,0.000
1757710006.783,20.996,-467.285,354.980,-170.410,0.000
1757710006.787,-63.477,-251.953,398.926,-125.488,0.000
1757710006.791,-189.941,-319.336,339.844,-121.094,0.000
1757710006.795,-99.121,-474.609,263.184,-162.109,0.000
1757710006.799,52.734,-333.984,336.914,-160.645,0.000
1757710006.802,6.348,-186.523,430.664,-140.137,0.000
1757710006.806,-143.066,-367.188,337.402,-148.926,0.000
1757710006.810,-114.258,-569.336,217.285,-202.637,0.000
1757710006.814,40.039,-508.301,248.047,-203.125,0.000
1757710006.818,46.875,-238.281,377.441,-174.316,0.000
1757710006.822,-105.957,-171.875,387.207,-139.648,0.000
1757710006.826,-153.320,-694.824,91.309,-161.621,0.000
1757710006.830,2.441,-600.098,120.117,-187.012,0.000
1757710006.834,69.336,-8.789,415.527,-166.016,0.000
1757710006.838,-58.594,-297.852,284.180,-102.539,0.000
1757710006.841,-164.551,-459.473,203.613,-137.207,0.000
1757710006.845,-44.434,-165.527,306.641,-221.191,0.000
1757710006.849,73.730,-41.992,383.789,-221.191,0.000
1757710006.853,6.348,-298.340,296.875,-174.805,0.000
1757710006.857,-139.160,-443.848,166.504,-151.367,0.000
1757710006.861,-79.590,-375.977,172.363,-208.496,0.000
1757710006.865,62.988,-128.906,311.523,-208.496,0.000
1757710006.869,35.156,-157.227,299.316,-155.273,0.000
1757710006.873,-118.164,-456.543,157.227,-138.672,0.000
1757710006.877,-105.469,-238.770,214.844,-200.195,0.000
1757710006.881,58.105,-25.391,329.590,-220.215,0.000
1757710006.884,82.520,-280.273,210.938,-169.434,0.000
1757710006.888,-70.312,-633.301,-31.738,-92.773,0.000
1757710006.892,-141.602,-393.555,76.172,-151.367,0.000
1757710006.896,3.906,-59.570,252.930,-214.355,0.000
1757710006.900,76.660,-128.906,197.266,-170.898,0.000
1757710006.904,-36.133,-292.969,142.578,-100.098,0.000
1757710006.908,-135.742,-443.359,39.062,-98.145,0.000
1757710006.912,-27.344,-309.570,107.910,-147.949,0.000
1757710006.916,77.148,-402.832,19.043,-119.629,0.000
1757710006.920,4.395,-403.320,-48.340,-78.125,0.000
1757710006.924,-144.043,-93.262,149.414,-92.285,0.000
1757710006.927,-83.008,-231.934,93.262,-139.160,0.000
1757710006.931,77.637,-229.492,165.527,-123.047,0.000
1757710006.935,62.500,-120.605,213.379,-75.684,0.000
1757710006.939,-97.168,-174.316,137.695,-51.758,0.000
1757710006.943,-113.770,-355.957,36.133,-90.332,0.000
1757710006.947,40.527,-380.859,65.918,-129.883,0.000
