timestamps,TP9,AF7,AF8,TP10,Right AUX
1757889879.366,133.789,-7.812,219.727,14.160,0.000
1757889879.369,-97.656,-43.945,-223.633,-31.250,0.000
1757889879.373,-137.695,-42.969,-469.238,-44.434,0.000
1757889879.377,-3.906,-19.043,-146.973,-17.090,0.000
1757889879.381,110.840,-15.625,203.125,2.441,0.000
1757889879.385,-17.090,-46.387,-109.375,-31.738,0.000
1757889879.389,-177.246,-60.547,-532.227,-59.570,0.000
1757889879.393,-36.133,-30.273,-379.883,-36.133,0.000
1757889879.397,103.027,-2.441,144.043,-22.949,0.000
1757889879.401,61.523,-33.691,23.438,-4.883,0.000
1757889879.405,-159.668,-59.570,-469.727,-44.922,0.000
1757889879.408,-107.422,-35.156,-371.582,-59.570,0.000
1757889879.412,86.914,-12.695,117.188,-10.254,0.000
1757889879.416,54.199,-34.668,151.367,2.930,0.000
1757889879.420,-91.309,-62.988,-351.074,-24.902,0.000
1757889879.424,-167.480,-45.898,-431.152,-55.176,0.000
1757889879.428,21.484,-17.578,12.207,-18.066,0.000
1757889879.432,84.473,-21.973,213.379,-0.488,0.000
1757889879.436,-68.848,-49.805,-246.582,-28.320,0.000
1757889879.440,-159.668,-42.969,-482.910,-61.523,0.000
1757889879.444,-51.270,-16.113,-77.148,-61.035,0.000
1757889879.448,104.980,-15.625,224.609,-9.766,0.000
1757889879.451,-38.086,-38.086,-183.594,-35.645,0.000
1757889879.455,-128.906,-45.898,-487.305,-62.012,0.000
1757889879.459,-109.863,-24.414,-332.031,-68.359,0.000
1757889879.463,96.191,-0.488,86.914,-32.227,0.000
1757889879.467,66.406,-21.973,73.242,-23.926,0.000
1757889879.471,-152.832,-47.852,-362.793,-57.617,0.000
1757889879.475,-105.469,-41.504,-430.176,-40.039,0.000
1757889879.479,2.930,-20.508,0.488,-25.879,0.000
1757889879.483,106.934,-21.973,165.039,4.395,0.000
1757889879.487,-70.312,-45.898,-268.555,-23.438,0.000
1757889879.491,-159.180,-48.828,-394.043,-38.574,0.000
1757889879.494,-20.508,-31.250,-125.000,-27.344,0.000
1757889879.498,106.445,-18.555,143.066,-27.832,0.000
1757889879.502,13.184,-42.969,-111.328,-14.648,0.000
1757889879.506,-179.199,-44.434,-447.266,-54.688,0.000
1757889879.510,-41.504,-19.043,-221.191,-53.711,0.000
1757889879.514,73.242,-6.836,198.242,-33.203,0.000
1757889879.518,62.988,-29.297,12.695,-26.855,0.000
1757889879.522,-120.605,-47.363,-395.508,-66.895,0.000
1757889879.526,-109.375,-32.227,-301.758,-67.871,0.000
1757889879.530,96.191,-4.883,130.371,-15.625,0.000
1757889879.534,66.406,-16.113,171.875,-16.602,0.000
1757889879.537,-85.938,-56.641,-327.148,-31.250,0.000
1757889879.541,-142.090,-42.480,-497.070,-56.152,0.000
1757889879.545,62.500,-1.953,-3.418,-19.043,0.000
1757889879.549,105.957,-12.695,225.098,8.789,0.000
1757889879.553,-36.133,-42.969,-229.004,-12.695,0.000
1757889879.557,-125.488,-37.598,-453.613,-34.180,0.000
1757889879.561,-42.969,-7.812,-21.973,-33.691,0.000
1757889879.565,139.648,-5.371,283.691,3.906,0.000
1757889879.569,-41.992,-37.598,-106.445,-27.344,0.000
1757889879.573,-115.723,-43.945,-456.543,-28.809,0.000
1757889879.577,-48.340,-21.973,-250.000,-23.926,0.000
1757889879.580,58.594,-13.672,200.684,-18.555,0.000
1757889879.584,49.805,-40.527,-72.266,-15.137,0.000
1757889879.588,-129.395,-48.828,-520.996,-71.289,0.000
1757889879.592,-79.590,-24.902,-343.262,-78.613,0.000
1757889879.596,43.945,-8.301,106.934,-57.129,0.000
1757889879.600,93.750,-22.461,154.297,-15.137,0.000
1757889879.604,-76.660,-42.480,-292.969,-27.832,0.000
1757889879.608,-120.117,-35.156,-375.488,-40.039,0.000
1757889879.612,28.320,-9.277,28.809,-5.371,0.000
1757889879.616,74.219,-10.254,231.934,15.137,0.000
1757889879.619,10.742,-43.945,-171.875,9.766,0.000
1757889879.623,-152.344,-40.039,-470.703,-46.387,0.000
1757889879.627,-1.953,-19.043,-235.352,-21.973,0.000
1757889879.631,100.098,-13.184,103.027,-6.836,0.000
1757889879.635,5.371,-24.902,-120.605,-17.578,0.000
1757889879.639,-85.449,-36.133,-465.332,-23.438,0.000
1757889879.643,-97.656,-19.531,-274.414,-37.598,0.000
1757889879.647,93.262,-4.395,161.133,-1.953,0.000
1757889879.651,23.926,-19.043,81.055,-25.879,0.000
1757889879.655,-86.426,-38.574,-352.539,-47.363,0.000
1757889879.659,-122.559,-24.902,-379.395,-56.152,0.000
1757889879.662,31.250,8.301,44.922,-27.344,0.000
1757889879.666,68.359,-9.277,170.410,-7.324,0.000
1757889879.670,-112.793,-42.969,-283.691,-48.340,0.000
1757889879.674,-103.027,-34.180,-505.371,-51.758,0.000
1757889879.678,-32.715,-6.836,-123.535,-54.199,0.000
1757889879.682,89.844,-6.348,209.961,-34.668,0.000
1757889879.686,-59.570,-41.016,-208.496,-42.969,0.000
1757889879.690,-129.395,-43.457,-499.023,-38.086,0.000
1757889879.694,-21.973,-10.742,-146.484,-23.438,0.000
1757889879.698,67.871,-2.441,256.348,-17.578,0.000
1757889879.702,11.230,-34.668,-28.320,-24.414,0.000
1757889879.705,-140.137,-43.945,-445.801,-66.406,0.000
1757889879.709,-30.273,-17.578,-236.328,-46.875,0.000
1757889879.713,25.391,-3.418,219.238,-51.758,0.000
1757889879.717,29.785,-30.762,-16.113,-35.156,0.000
1757889879.721,-124.512,-47.852,-501.465,-42.480,0.000
1757889879.725,-122.070,-21.484,-437.500,-59.570,0.000
1757889879.729,61.523,0.000,31.250,-22.949,0.000
1757889879.733,-3.906,-14.160,210.938,-33.203,0.000
1757889879.737,-54.199,-41.016,-284.180,-20.020,0.000
1757889879.741,-138.672,-26.855,-441.406,-45.410,0.000
1757889879.744,-3.906,0.488,-8.789,-22.461,0.000
1757889879.748,68.848,-1.465,236.328,5.859,0.000
1757889879.752,-95.215,-32.227,-137.695,-36.621,0.000
1757889879.756,-131.836,-28.320,-464.355,-54.199,0.000
1757889879.760,-59.082,-6.348,-192.383,-42.480,0.000
1757889879.764,85.449,-2.441,173.828,-20.508,0.000
1757889879.768,-28.320,-21.484,-75.684,-46.387,0.000
1757889879.772,-96.680,-30.762,-442.383,-31.250,0.000
1757889879.776,-100.586,-20.020,-291.016,-14.648,0.000
1757889879.780,36.621,-5.859,162.598,-2.441,0.000
1757889879.784,59.082,-10.254,142.578,-27.832,0.000
1757889879.787,-147.949,-32.715,-263.672,-90.820,0.000
1757889879.791,-53.223,-34.668,-364.258,-56.641,0.000
1757889879.795,14.160,-16.113,11.719,-49.316,0.000
1757889879.799,73.242,-12.207,222.656,-36.133,0.000
1757889879.803,-63.965,-44.922,-162.109,-48.828,0.000
1757889879.807,-131.836,-58.105,-433.594,-56.152,0.000
1757889879.811,28.809,-26.855,-177.734,-17.090,0.000
1757889879.815,77.637,-8.789,217.285,-23.438,0.000
1757889879.819,-21.973,-37.109,-41.992,-30.762,0.000
1757889879.823,-188.965,-56.641,-465.332,-52.246,0.000
1757889879.827,-32.715,-36.621,-327.148,-15.625,0.000
1757889879.830,50.293,-16.113,181.641,-6.836,0.000
1757889879.834,-30.762,-43.945,51.758,-16.113,0.000
1757889879.838,-146.484,-59.570,-422.852,-31.738,0.000
1757889879.842,-129.395,-37.598,-316.406,-64.941,0.000
1757889879.846,89.844,-17.578,168.457,-38.574,0.000
1757889879.850,-1.953,-30.762,153.320,-55.176,0.000
1757889879.854,-128.418,-56.152,-349.609,-58.594,0.000
1757889879.858,-122.559,-39.551,-472.656,-51.270,0.000
1757889879.862,67.871,-4.883,-22.949,-7.812,0.000
1757889879.866,58.105,-19.531,242.676,-1.465,0.000
1757889879.869,-104.980,-57.129,-252.930,-32.227,0.000
1757889879.873,-126.953,-46.387,-531.738,-49.316,0.000
1757889879.877,-43.457,-25.879,-123.047,-53.711,0.000
1757889879.881,137.695,-22.949,231.445,-1.465,0.000
1757889879.885,-92.285,-48.340,-78.613,-54.688,0.000
1757889879.889,-144.531,-48.828,-440.918,-60.059,0.000
1757889879.893,-35.156,-25.391,-207.520,-39.551,0.000
1757889879.897,73.242,-14.648,240.234,-20.508,0.000
1757889879.901,44.434,-35.645,21.973,-17.090,0.000
1757889879.905,-180.176,-58.594,-419.434,-79.102,0.000
1757889879.909,-98.633,-51.270,-414.551,-54.199,0.000
1757889879.912,36.621,-39.551,-16.113,-5.859,0.000
1757889879.916,69.336,-47.363,27.344,9.277,0.000
1757889879.920,-132.812,-62.500,-386.230,-54.199,0.000
1757889879.924,-165.527,-52.734,-439.941,-82.031,0.000
1757889879.928,13.672,-27.344,-57.129,-43.945,0.000
1757889879.932,73.242,-24.902,222.168,-30.273,0.000
1757889879.936,-33.691,-48.828,-141.602,-49.316,0.000
1757889879.940,-217.773,-54.688,-437.012,-91.309,0.000
1757889879.944,-21.484,-29.297,-203.613,-41.016,0.000
1757889879.948,96.680,-18.555,214.844,3.906,0.000
1757889879.952,-39.551,-42.480,-40.527,-26.855,0.000
1757889879.955,-173.340,-54.199,-410.156,-63.965,0.000
1757889879.959,-139.160,-45.898,-381.348,-49.316,0.000
1757889879.963,104.492,-24.414,-10.254,-2.930,0.000
1757889879.967,19.531,-37.109,93.262,-31.738,0.000
1757889879.971,-151.367,-63.965,-373.535,-58.105,0.000
1757889879.975,-151.367,-49.316,-406.250,-49.316,0.000
1757889879.979,70.312,-15.137,66.406,-8.301,0.000
1757889879.983,107.910,-27.832,239.746,-22.949,0.000
1757889879.987,-134.277,-62.012,-214.355,-84.961,0.000
1757889879.991,-138.672,-53.223,-442.383,-71.289,0.000
1757889879.995,-39.062,-28.320,-17.578,-46.387,0.000
1757889879.998,137.207,-25.879,231.445,-12.695,0.000
1757889880.002,-41.504,-60.547,-218.262,-26.367,0.000
1757889880.006,-196.289,-60.547,-541.016,-60.547,0.000
1757889880.010,-23.438,-18.555,-243.652,-51.270,0.000
1757889880.014,79.590,-4.883,205.078,-31.738,0.000
1757889880.018,21.484,-31.250,-32.227,-20.508,0.000
1757889880.022,-188.477,-46.875,-467.285,-66.406,0.000
1757889880.026,-88.867,-22.461,-287.598,-51.270,0.000
1757889880.030,55.176,-0.977,192.383,-20.508,0.000
1757889880.034,79.102,-30.762,76.172,-11.719,0.000
1757889880.037,-129.395,-54.688,-390.625,-63.477,0.000
1757889880.041,-187.500,-41.992,-431.641,-95.215,0.000
1757889880.045,44.434,-21.973,-13.672,-33.203,0.000
1757889880.049,41.504,-22.461,61.035,-23.438,0.000
1757889880.053,-38.086,-41.016,-422.363,-26.855,0.000
1757889880.057,-194.824,-33.203,-470.215,-72.754,0.000
1757889880.061,-36.133,-6.836,-113.281,-58.594,0.000
1757889880.065,106.934,-2.441,182.129,-20.508,0.000
1757889880.069,-37.598,-30.273,-133.789,-36.133,0.000
1757889880.073,-167.969,-41.504,-472.656,-54.688,0.000
1757889880.077,-136.719,-20.020,-313.965,-57.617,0.000
1757889880.080,102.051,1.465,127.441,0.488,0.000
1757889880.084,20.508,-21.973,47.363,-3.906,0.000
1757889880.088,-127.441,-44.434,-388.184,-30.762,0.000
1757889880.092,-174.316,-31.250,-428.223,-51.270,0.000
1757889880.096,24.414,-2.441,-79.102,-27.344,0.000
1757889880.100,100.098,-7.812,64.941,-6.348,0.000
1757889880.104,-133.789,-39.551,-313.477,-57.617,0.000
1757889880.108,-139.160,-34.668,-490.723,-69.824,0.000
1757889880.112,-34.668,-11.719,-60.059,-63.477,0.000
1757889880.116,89.355,-17.578,235.840,-29.785,0.000
1757889880.120,-40.039,-43.945,-179.199,-41.504,0.000
1757889880.123,-205.566,-46.875,-453.125,-83.008,0.000
1757889880.127,-70.801,-22.949,-156.738,-54.199,0.000
1757889880.131,64.941,-14.648,218.262,-24.414,0.000
1757889880.135,-1.953,-46.875,-90.332,-15.137,0.000
1757889880.139,-168.945,-49.316,-482.422,-48.340,0.000
1757889880.143,-99.121,-19.043,-259.766,-63.965,0.000
1757889880.147,54.688,-0.488,205.566,-39.062,0.000
1757889880.151,18.066,-34.668,96.680,-9.766,0.000
1757889880.155,-137.695,-62.500,-408.691,-28.320,0.000
1757889880.159,-198.242,-31.738,-425.293,-78.613,0.000
1757889880.163,23.438,-12.207,69.824,-37.109,0.000
1757889880.166,22.461,-33.203,174.805,-18.066,0.000
1757889880.170,-97.656,-52.734,-304.688,-26.367,0.000
1757889880.174,-166.992,-39.062,-435.059,-45.410,0.000
1757889880.178,-69.336,-13.672,4.883,-53.223,0.000
1757889880.182,66.406,-15.625,235.352,-35.156,0.000
1757889880.186,-67.383,-45.410,-223.633,-48.340,0.000
1757889880.190,-125.000,-46.387,-515.137,-44.434,0.000
1757889880.194,-107.910,-24.902,-165.527,-54.688,0.000
1757889880.198,81.055,-22.461,182.617,-11.230,0.000
1757889880.202,-34.668,-33.691,-188.477,-40.039,0.000
1757889880.205,-135.742,-39.062,-488.770,-62.012,0.000
1757889880.209,-103.027,-28.320,-270.996,-55.176,0.000
1757889880.213,-28.320,-10.742,148.438,-57.129,0.000
1757889880.217,51.270,-29.785,94.727,-23.438,0.000
1757889880.221,-146.973,-52.734,-330.078,-35.156,0.000
1757889880.225,-141.113,-41.016,-442.871,-34.180,0.000
1757889880.229,-43.945,-20.020,-31.250,-48.828,0.000
1757889880.233,39.062,-26.855,179.688,-23.438,0.000
1757889880.237,-85.449,-44.434,-266.113,-25.391,0.000
1757889880.241,-168.457,-46.875,-455.078,-41.504,0.000
1757889880.245,-61.523,-37.109,-234.375,-16.113,0.000
1757889880.248,11.230,-24.902,65.430,-34.668,0.000
1757889880.252,-19.043,-44.434,-166.504,-56.641,0.000
1757889880.256,-177.734,-55.176,-503.906,-68.359,0.000
1757889880.260,-76.660,-29.297,-243.652,-44.922,0.000
1757889880.264,29.297,-10.254,221.191,-35.156,0.000
1757889880.268,-55.176,-36.133,37.109,-41.016,0.000
1757889880.272,-123.535,-57.617,-383.301,-47.363,0.000
1757889880.276,-158.691,-44.434,-334.473,-82.031,0.000
1757889880.280,11.719,-17.578,75.195,-58.105,0.000
1757889880.284,-1.465,-26.367,146.484,-49.805,0.000
1757889880.288,-151.367,-61.035,-332.031,-57.617,0.000
1757889880.291,-128.418,-49.316,-508.301,-50.293,0.000
1757889880.295,-36.133,-15.137,-45.410,-51.270,0.000
1757889880.299,17.578,-20.508,192.383,-27.344,0.000
1757889880.303,-118.164,-44.434,-242.676,-54.199,0.000
1757889880.307,-132.324,-43.457,-472.656,-67.383,0.000
1757889880.311,-68.359,-22.461,-43.457,-48.340,0.000
1757889880.315,21.484,-22.461,293.945,-27.344,0.000
1757889880.319,-64.453,-51.270,-99.609,-34.668,0.000
1757889880.323,-164.062,-60.059,-461.914,-46.875,0.000
1757889880.327,-37.598,-38.574,-258.301,-37.598,0.000
1757889880.330,-15.137,-24.902,219.238,-58.594,0.000
1757889880.334,-25.879,-55.664,-49.805,-44.434,0.000
1757889880.338,-157.227,-61.035,-524.902,-69.336,0.000
1757889880.342,-84.473,-33.203,-315.918,-45.898,0.000
1757889880.346,20.508,-16.113,166.504,-22.949,0.000
1757889880.350,-21.484,-33.691,176.758,-37.598,0.000
1757889880.354,-112.793,-46.875,-313.965,-56.641,0.000
1757889880.358,-138.184,-29.785,-377.930,-83.984,0.000
1757889880.362,47.363,-14.160,21.484,-39.551,0.000
1757889880.366,-7.812,-14.648,220.215,-48.828,0.000
1757889880.370,-61.523,-46.875,-177.734,-33.203,0.000
1757889880.373,-141.602,-50.293,-468.262,-32.715,0.000
1757889880.377,-54.688,-24.414,-229.004,-32.227,0.000
1757889880.381,72.266,-17.090,120.117,-27.344,0.000
1757889880.385,-86.426,-39.551,-114.258,-69.336,0.000
1757889880.389,-134.766,-51.270,-495.117,-66.406,0.000
1757889880.393,-72.266,-28.320,-291.992,-54.688,0.000
1757889880.397,75.684,-4.395,169.922,-17.090,0.000
1757889880.401,-30.273,-25.391,95.215,-41.992,0.000
1757889880.405,-167.480,-51.758,-345.215,-64.941,0.000
1757889880.409,-110.840,-39.551,-395.996,-43.945,0.000
1757889880.413,7.324,-14.648,47.363,-25.391,0.000
1757889880.416,57.617,-21.973,178.711,-3.418,0.000
1757889880.420,-189.453,-53.223,-279.297,-68.848,0.000
1757889880.424,-131.348,-47.363,-496.094,-45.898,0.000
1757889880.428,23.926,-6.836,-163.086,1.953,0.000
1757889880.432,53.223,-1.465,215.332,-6.348,0.000
1757889880.436,-76.172,-32.227,-116.699,-34.180,0.000
1757889880.440,-217.285,-31.738,-445.312,-57.129,0.000
1757889880.444,16.602,-1.465,-164.062,4.883,0.000
1757889880.448,66.895,1.465,256.348,-23.438,0.000
1757889880.452,-35.156,-44.434,-12.695,-61.035,0.000
1757889880.455,-198.730,-59.570,-443.848,-82.520,0.000
1757889880.459,-92.773,-29.297,-229.492,-51.758,0.000
1757889880.463,81.055,-14.160,210.938,-12.207,0.000
1757889880.467,-49.805,-46.875,-17.578,-41.016,0.000
1757889880.471,-164.062,-60.059,-490.234,-49.805,0.000
1757889880.475,-160.156,-23.926,-379.395,-59.570,0.000
1757889880.479,97.168,-3.418,94.727,-6.348,0.000
1757889880.483,17.578,-20.020,207.520,-18.066,0.000
1757889880.487,-131.348,-45.410,-275.391,-49.316,0.000
1757889880.491,-145.020,-40.527,-433.105,-55.176,0.000
1757889880.495,-28.809,-17.090,-6.348,-32.227,0.000
1757889880.498,128.418,-11.719,270.508,7.812,0.000
1757889880.502,-113.770,-36.133,-125.488,-67.871,0.000
1757889880.506,-161.621,-41.504,-474.121,-86.426,0.000
1757889880.510,-57.617,-26.855,-198.730,-53.711,0.000
1757889880.514,85.938,-18.555,136.230,-9.277,0.000
1757889880.518,-0.488,-27.344,-198.242,-22.949,0.000
1757889880.522,-191.406,-29.785,-528.320,-74.707,0.000
1757889880.526,-100.098,-18.066,-355.469,-41.016,0.000
1757889880.530,35.156,-5.371,63.965,-10.254,0.000
1757889880.534,67.383,-19.531,121.094,-11.230,0.000
1757889880.538,-208.496,-40.527,-295.410,-78.613,0.000
1757889880.541,-189.453,-30.273,-426.270,-76.660,0.000
1757889880.545,49.316,-7.324,-31.738,-21.973,0.000
1757889880.549,43.945,-6.836,217.285,-24.902,0.000
1757889880.553,-67.871,-30.762,-192.383,-36.133,0.000
1757889880.557,-230.957,-38.574,-460.938,-73.242,0.000
1757889880.561,-30.273,-18.066,-216.797,-29.785,0.000
1757889880.565,126.953,-4.883,177.734,15.137,0.000
1757889880.569,-54.199,-31.250,-28.320,-8.789,0.000
1757889880.573,-216.797,-49.805,-478.516,-44.434,0.000
1757889880.577,-106.445,-27.832,-394.043,-35.645,0.000
1757889880.580,123.535,5.371,146.973,0.000,0.000
1757889880.584,19.531,-20.508,47.363,-19.043,0.000
1757889880.588,-190.918,-42.480,-439.453,-70.801,0.000
1757889880.592,-146.973,-21.973,-370.605,-81.055,0.000
1757889880.596,58.105,-11.719,103.027,-21.973,0.000
1757889880.600,65.430,-31.250,91.309,-9.277,0.000
1757889880.604,-127.930,-52.734,-391.113,-44.922,0.000
1757889880.608,-208.008,-38.574,-489.258,-71.289,0.000
1757889880.612,23.438,-5.859,-51.270,-33.691,0.000
1757889880.616,115.723,-15.137,229.980,15.137,0.000
1757889880.620,-87.891,-49.805,-267.090,-7.324,0.000
1757889880.623,-189.941,-33.203,-540.039,-41.504,0.000
1757889880.627,-51.270,-9.277,-160.156,-23.926,0.000
1757889880.631,125.977,-9.766,187.988,6.836,0.000
1757889880.635,29.785,-33.203,-112.793,-13.184,0.000
1757889880.639,-139.160,-45.898,-464.355,-51.758,0.000
1757889880.643,-152.344,-26.367,-210.449,-99.121,0.000
1757889880.647,65.918,-16.602,231.445,-53.223,0.000
1757889880.651,45.410,-45.898,18.066,-9.277,0.000
1757889880.655,-193.359,-58.594,-447.266,-65.430,0.000
1757889880.659,-142.090,-40.039,-351.074,-61.523,0.000
1757889880.663,-30.273,-35.645,94.238,-20.996,0.000
1757889880.666,78.125,-41.992,62.012,5.371,0.000
1757889880.670,-63.965,-41.992,-360.840,-47.363,0.000
1757889880.674,-224.121,-39.551,-425.781,-100.586,0.000
1757889880.678,-29.785,-23.926,-32.227,-48.340,0.000
1757889880.682,104.004,-21.973,261.230,-3.906,0.000
1757889880.686,-38.574,-49.316,-84.961,-19.043,0.000
1757889880.690,-161.621,-55.664,-434.570,-30.273,0.000
1757889880.694,-96.680,-28.320,-206.543,-45.410,0.000
1757889880.698,70.801,-12.695,209.961,-30.762,0.000
1757889880.702,72.754,-37.598,-50.293,-4.883,0.000
1757889880.706,-176.758,-50.293,-418.457,-57.129,0.000
1757889880.709,-153.809,-42.480,-379.883,-62.988,0.000
1757889880.713,68.359,-11.230,15.625,-26.367,0.000
1757889880.717,40.039,-23.926,152.344,-42.969,0.000
1757889880.721,-83.496,-59.082,-311.035,-45.898,0.000
1757889880.725,-179.199,-43.945,-401.367,-73.730,0.000
1757889880.729,-12.695,-17.090,59.570,-51.270,0.000
1757889880.733,109.375,-25.879,257.812,4.395,0.000
1757889880.737,-79.102,-51.758,-194.824,-29.785,0.000
1757889880.741,-125.977,-51.758,-450.195,-41.016,0.000
1757889880.745,-63.965,-25.391,-34.180,-38.086,0.000
1757889880.748,75.195,-14.160,250.488,-17.578,0.000
1757889880.752,45.898,-45.410,-194.824,9.766,0.000
1757889880.756,-154.785,-51.758,-533.691,-31.250,0.000
1757889880.760,-58.105,-19.043,-245.117,-56.641,0.000
1757889880.764,88.867,-5.371,222.168,-25.879,0.000
1757889880.768,10.742,-36.621,31.738,-15.137,0.000
1757889880.772,-83.008,-56.641,-409.668,-15.137,0.000
1757889880.776,-127.441,-35.156,-253.906,-54.199,0.000
1757889880.780,-12.207,-14.160,201.660,-64.453,0.000
1757889880.784,80.566,-33.691,149.414,-12.695,0.000
1757889880.788,-107.422,-54.688,-302.246,-35.645,0.000
1757889880.791,-134.766,-40.527,-409.668,-54.688,0.000
1757889880.795,-10.254,-20.508,20.020,-42.480,0.000
1757889880.799,1.465,-31.738,145.996,-44.434,0.000
1757889880.803,-18.555,-48.340,-323.730,-23.926,0.000
1757889880.807,-132.324,-36.133,-456.055,-52.246,0.000
1757889880.811,-68.848,-19.043,-94.238,-52.246,0.000
1757889880.815,58.594,-11.719,255.859,-16.602,0.000
1757889880.819,-20.020,-29.785,-46.387,-28.809,0.000
1757889880.823,-107.910,-44.922,-414.551,-51.758,0.000
1757889880.827,-87.891,-21.484,-193.848,-72.266,0.000
1757889880.831,36.621,3.418,221.191,-50.293,0.000
1757889880.834,38.574,-14.648,70.312,-20.020,0.000
1757889880.838,-111.816,-40.527,-326.172,-42.969,0.000
1757889880.842,-118.652,-40.527,-365.234,-37.598,0.000
1757889880.846,-12.207,-17.578,-37.598,-23.438,0.000
1757889880.850,-3.418,-18.066,134.766,-41.504,0.000
1757889880.854,-64.453,-48.340,-274.902,-20.020,0.000
1757889880.858,-137.695,-42.969,-489.746,-48.340,0.000
1757889880.862,-27.344,-15.625,-48.340,-67.871,0.000
1757889880.866,65.430,-13.184,246.094,-38.086,0.000
1757889880.870,-102.051,-46.387,-140.137,-61.523,0.000
1757889880.873,-108.887,-59.082,-435.547,-49.805,0.000
1757889880.877,-38.574,-36.621,-143.066,-36.133,0.000
1757889880.881,-8.789,-25.391,233.887,-46.875,0.000
1757889880.885,-36.133,-52.734,-48.340,-21.973,0.000
1757889880.889,-155.762,-67.871,-486.328,-35.645,0.000
1757889880.893,-79.102,-32.715,-393.066,-49.805,0.000
1757889880.897,61.035,-2.441,125.000,-26.855,0.000
1757889880.901,-48.340,-31.250,71.289,-48.340,0.000
1757889880.905,-105.957,-52.734,-394.531,-48.828,0.000
1757889880.909,-65.430,-33.203,-341.309,-29.785,0.000
1757889880.913,14.648,-10.742,88.867,-20.996,0.000
1757889880.916,19.043,-21.973,183.594,-24.414,0.000
1757889880.920,-129.883,-47.363,-282.227,-45.898,0.000
1757889880.924,-109.375,-42.969,-420.898,-12.207,0.000
1757889880.928,0.488,-17.578,27.344,3.906,0.000
1757889880.932,-11.230,-11.719,239.746,-38.086,0.000
1757889880.936,-88.379,-39.062,-218.262,-55.664,0.000
1757889880.940,-135.742,-34.668,-471.680,-65.918,0.000
1757889880.944,-17.578,-9.277,-118.164,-47.363,0.000
1757889880.948,59.570,-10.742,229.004,-28.809,0.000
1757889880.952,-104.004,-38.574,-114.746,-62.988,0.000
1757889880.955,-122.559,-44.434,-463.867,-49.805,0.000
1757889880.959,-57.617,-31.250,-225.586,-32.715,0.000
1757889880.963,29.297,-22.949,208.496,-31.250,0.000
1757889880.967,6.836,-36.133,88.867,-18.066,0.000
1757889880.971,-159.668,-49.805,-351.562,-47.363,0.000
1757889880.975,-89.844,-37.598,-421.387,-29.785,0.000
1757889880.979,60.059,-13.184,-10.742,10.254,0.000
1757889880.983,2.930,-20.508,172.852,-27.344,0.000
1757889880.987,-102.051,-43.457,-255.859,-53.711,0.000
1757889880.991,-120.117,-47.363,-420.898,-45.410,0.000
1757889880.995,1.465,-33.203,-131.836,-23.926,0.000
1757889880.998,104.492,-15.625,169.922,-2.930,0.000
1757889881.002,-100.586,-40.039,-80.078,-49.316,0.000
1757889881.006,-145.996,-49.805,-456.543,-53.711,0.000
1757889881.010,4.395,-21.973,-243.652,-2.930,0.000
1757889881.014,78.613,-3.906,228.027,-14.648,0.000
1757889881.018,-3.418,-28.809,40.527,-41.016,0.000
1757889881.022,-187.988,-45.410,-406.250,-68.848,0.000
1757889881.026,-76.172,-35.645,-360.352,-28.320,0.000
1757889881.030,115.723,-10.742,73.242,12.207,0.000
1757889881.034,10.254,-13.184,189.453,-37.109,0.000
1757889881.038,-149.414,-51.270,-279.297,-56.152,0.000
1757889881.041,-128.418,-48.340,-503.418,-60.059,0.000
1757889881.045,68.359,-7.812,-30.273,-34.180,0.000
1757889881.049,115.723,-9.277,262.207,-11.719,0.000
1757889881.053,-155.273,-37.109,-197.754,-71.289,0.000
1757889881.057,-157.715,-36.621,-442.871,-69.824,0.000
1757889881.061,48.340,-12.695,-17.090,-4.883,0.000
1757889881.065,68.848,-11.230,302.246,-10.742,0.000
1757889881.069,-37.598,-47.363,-56.641,-28.809,0.000
1757889881.073,-199.219,-59.082,-445.801,-55.664,0.000
1757889881.077,-64.453,-34.180,-271.973,-28.320,0.000
1757889881.081,148.926,-16.113,221.191,33.203,0.000
1757889881.084,-41.992,-42.969,-40.039,-15.137,0.000
1757889881.088,-164.551,-50.293,-539.062,-63.965,0.000
1757889881.092,-66.406,-26.367,-312.500,-48.340,0.000
1757889881.096,89.844,-12.207,167.480,-19.043,0.000
1757889881.100,102.051,-25.391,202.148,-11.230,0.000
1757889881.104,-146.973,-37.109,-243.652,-44.434,0.000
1757889881.108,-145.996,-25.391,-335.938,-42.969,0.000
1757889881.112,91.797,-7.812,64.941,-12.207,0.000
1757889881.116,115.723,-11.230,248.047,-29.297,0.000
1757889881.120,-60.059,-39.551,-127.930,-49.805,0.000
1757889881.123,-209.961,-37.109,-443.848,-81.055,0.000
1757889881.127,-31.738,-21.973,-199.219,-40.527,0.000
1757889881.131,166.504,-16.113,160.645,26.367,0.000
1757889881.135,-35.156,-30.762,-117.188,-26.367,0.000
1757889881.139,-174.316,-42.969,-477.051,-62.012,0.000
1757889881.143,-78.125,-28.320,-270.020,-42.480,0.000
1757889881.147,96.191,-12.207,178.711,-13.184,0.000
1757889881.151,88.379,-26.855,101.562,-4.883,0.000
1757889881.155,-189.941,-46.875,-314.941,-71.777,0.000
1757889881.159,-168.457,-36.621,-368.652,-64.941,0.000
1757889881.163,104.980,-13.184,46.387,-1.465,0.000
1757889881.166,66.406,-21.973,188.477,-24.902,0.000
1757889881.170,-107.910,-55.176,-278.320,-55.664,0.000
1757889881.174,-214.844,-55.176,-504.395,-74.707,0.000
1757889881.178,-44.922,-22.461,-195.801,-56.641,0.000
1757889881.182,171.387,-14.648,194.824,5.859,0.000
1757889881.186,-82.031,-52.246,-92.285,-41.016,0.000
1757889881.190,-223.633,-65.430,-480.469,-95.215,0.000
1757889881.194,-48.340,-35.156,-205.078,-71.289,0.000
1757889881.198,95.215,-16.113,256.836,-30.273,0.000
1757889881.202,30.762,-45.898,-2.441,-17.090,0.000
1757889881.206,-209.473,-57.617,-443.848,-67.871,0.000
1757889881.209,-151.855,-37.109,-258.789,-68.848,0.000
1757889881.213,96.680,-18.066,212.402,-19.043,0.000
1757889881.217,24.414,-43.457,78.613,-21.973,0.000
1757889881.221,-147.461,-69.336,-429.688,-47.363,0.000
1757889881.225,-182.129,-40.039,-415.039,-71.289,0.000
1757889881.229,-9.277,-17.578,42.480,-45.898,0.000
1757889881.233,144.043,-21.484,188.965,13.672,0.000
1757889881.237,-98.633,-39.551,-239.746,-37.598,0.000
1757889881.241,-187.988,-34.180,-403.320,-71.289,0.000
1757889881.245,-18.555,-15.137,-2.930,-42.969,0.000
1757889881.248,73.730,-9.766,275.879,-27.832,0.000
1757889881.252,30.273,-37.109,-78.125,0.000,0.000
1757889881.256,-200.684,-49.316,-431.641,-46.387,0.000
1757889881.260,-136.719,-26.367,-195.312,-52.734,0.000
1757889881.264,121.094,-19.531,149.414,3.418,0.000
1757889881.268,27.832,-37.598,-83.984,-9.277,0.000
1757889881.272,-120.117,-45.410,-433.105,-44.434,0.000
1757889881.276,-143.555,-33.691,-278.320,-64.941,0.000
1757889881.280,17.578,-17.578,160.156,-44.922,0.000
1757889881.284,133.301,-23.926,179.688,2.930,0.000
1757889881.288,-97.656,-43.945,-208.008,-36.621,0.000
1757889881.291,-167.969,-42.480,-329.590,-75.684,0.000
1757889881.295,-10.742,-21.973,58.105,-46.875,0.000
1757889881.299,65.430,-26.855,243.652,-7.324,0.000
1757889881.303,-6.836,-56.152,-159.668,0.977,0.000
1757889881.307,-188.477,-59.082,-445.312,-67.871,0.000
1757889881.311,-104.492,-32.227,-217.285,-76.172,0.000
1757889881.315,119.141,-7.324,218.262,-13.184,0.000
1757889881.319,-8.789,-40.527,4.395,-18.555,0.000
1757889881.323,-126.465,-60.547,-436.523,-40.039,0.000
1757889881.327,-111.816,-31.738,-277.344,-65.430,0.000
1757889881.330,13.672,-4.883,205.566,-57.617,0.000
1757889881.334,95.215,-27.344,119.141,-7.812,0.000
1757889881.338,-118.652,-52.246,-332.031,-30.762,0.000
1757889881.342,-139.648,-36.133,-316.895,-49.805,0.000
1757889881.346,21.484,-13.184,167.480,-32.227,0.000
1757889881.350,12.695,-30.762,184.570,-31.738,0.000
1757889881.354,-43.457,-55.664,-308.594,-18.555,0.000
1757889881.358,-123.535,-37.598,-452.637,-50.781,0.000
1757889881.362,-53.223,-10.254,-23.438,-64.453,0.000
1757889881.366,96.191,-15.137,255.371,-11.230,0.000
1757889881.370,-49.316,-50.781,-194.824,-14.160,0.000
1757889881.373,-118.164,-42.480,-501.465,-37.109,0.000
1757889881.377,-57.129,-10.254,-143.555,-54.199,0.000
1757889881.381,13.184,-6.836,250.977,-55.664,0.000
1757889881.385,41.504,-35.645,-25.391,-27.832,0.000
1757889881.389,-120.605,-48.340,-396.973,-49.316,0.000
1757889881.393,-116.211,-26.855,-212.402,-56.641,0.000
1757889881.397,25.879,-12.207,210.449,-34.180,0.000
1757889881.401,-21.973,-38.086,58.594,-44.434,0.000
1757889881.405,-65.918,-55.176,-419.434,-27.832,0.000
1757889881.409,-101.562,-30.762,-372.070,-29.785,0.000
1757889881.413,-56.641,-19.531,60.059,-41.016,0.000
1757889881.416,55.664,-33.691,61.035,-13.184,0.000
1757889881.420,-94.727,-41.992,-348.145,-46.875,0.000
1757889881.424,-104.980,-33.691,-440.918,-48.340,0.000
1757889881.428,-30.762,-11.719,-40.039,-54.199,0.000
1757889881.432,-10.742,-2.930,229.492,-67.871,0.000
1757889881.436,-9.277,-22.949,-123.047,-32.715,0.000
1757889881.440,-140.137,-39.062,-420.898,-45.410,0.000
1757889881.444,-69.824,-20.508,-225.098,-39.062,0.000
1757889881.448,40.039,-4.395,201.660,-18.555,0.000
1757889881.452,-50.781,-24.414,-53.223,-47.852,0.000
1757889881.456,-90.332,-36.621,-444.824,-41.992,0.000
1757889881.459,-79.102,-24.902,-406.738,-22.461,0.000
1757889881.463,-4.883,1.953,-16.113,-41.016,0.000
1757889881.467,27.344,-15.137,106.934,-30.762,0.000
1757889881.471,-131.836,-41.992,-381.348,-35.156,0.000
1757889881.475,-86.426,-25.391,-480.469,-14.648,0.000
1757889881.479,25.879,-0.977,-10.742,-9.766,0.000
1757889881.483,-11.230,-10.742,220.215,-50.293,0.000
1757889881.487,-59.082,-40.527,-249.512,-31.250,0.000
1757889881.491,-114.746,-32.227,-479.004,-38.086,0.000
1757889881.495,-4.883,-10.742,-134.766,-52.246,0.000
1757889881.498,64.453,-9.277,152.832,-40.039,0.000
1757889881.502,-104.980,-39.551,-233.887,-54.688,0.000
1757889881.506,-100.586,-38.574,-538.574,-27.344,0.000
1757889881.510,-12.207,-5.859,-252.441,-19.531,0.000
1757889881.514,19.531,2.930,200.684,-35.645,0.000
1757889881.518,-23.438,-35.645,-48.340,-28.809,0.000
1757889881.522,-177.246,-53.711,-534.668,-65.430,0.000
1757889881.526,-44.434,-24.414,-429.688,-40.039,0.000
1757889881.530,102.539,-2.930,29.297,-7.812,0.000
1757889881.534,-54.688,-24.902,34.180,-55.664,0.000
1757889881.538,-118.164,-53.223,-425.293,-50.781,0.000
1757889881.541,-105.469,-42.480,-460.449,-35.156,0.000
1757889881.545,4.395,-16.113,-58.594,-18.066,0.000
1757889881.549,49.316,-26.367,93.262,0.488,0.000
1757889881.553,-145.996,-44.922,-382.812,-60.547,0.000
1757889881.557,-125.977,-36.621,-500.000,-78.613,0.000
1757889881.561,24.414,-18.555,-121.094,-48.340,0.000
1757889881.565,50.781,-10.254,229.980,-43.945,0.000
1757889881.569,-46.387,-36.621,-71.777,-49.316,0.000
1757889881.573,-169.434,-41.504,-433.105,-57.617,0.000
1757889881.577,-24.902,-22.461,-229.492,-16.113,0.000
1757889881.581,117.188,-13.184,178.711,16.113,0.000
1757889881.584,-48.340,-28.809,22.461,-23.438,0.000
1757889881.588,-135.742,-46.387,-386.230,-42.969,0.000
1757889881.592,-85.449,-32.227,-421.875,-43.945,0.000
1757889881.596,85.938,-9.766,-30.273,-16.113,0.000
1757889881.600,73.242,-19.043,180.664,-28.320,0.000
1757889881.604,-182.129,-44.434,-224.609,-100.586,0.000
1757889881.608,-116.699,-51.758,-453.125,-62.012,0.000
1757889881.612,54.688,-33.691,-179.688,-14.648,0.000
1757889881.616,62.988,-18.555,145.996,-35.156,0.000
1757889881.620,-68.359,-41.016,-163.574,-42.480,0.000
1757889881.624,-182.129,-41.992,-463.379,-61.035,0.000
1757889881.627,23.926,-16.113,-157.227,-17.578,0.000
1757889881.631,150.879,-9.277,235.352,9.277,0.000
1757889881.635,-80.566,-34.668,-51.758,-58.105,0.000
1757889881.639,-183.105,-55.664,-508.789,-72.266,0.000
1757889881.643,-61.035,-26.855,-395.996,-40.039,0.000
1757889881.647,141.602,3.418,111.816,-3.906,0.000
1757889881.651,42.969,-26.367,68.848,-23.438,0.000
1757889881.655,-214.844,-45.898,-415.527,-89.844,0.000
1757889881.659,-98.633,-22.461,-416.016,-56.152,0.000
1757889881.663,108.887,-0.977,57.617,-9.277,0.000
1757889881.666,58.594,-25.391,207.520,-37.598,0.000
1757889881.670,-130.859,-52.246,-278.809,-79.590,0.000
1757889881.674,-189.941,-35.156,-454.102,-95.703,0.000
1757889881.678,42.480,-11.719,-16.113,-27.832,0.000
1757889881.682,138.672,-22.949,212.891,14.648,0.000
1757889881.686,-120.117,-49.805,-258.789,-57.129,0.000
1757889881.690,-175.293,-43.945,-500.000,-75.195,0.000
1757889881.694,-25.391,-26.367,-256.348,-40.527,0.000
1757889881.698,159.180,-16.602,85.449,4.883,0.000
1757889881.702,35.156,-34.668,-178.223,-21.973,0.000
1757889881.705,-240.234,-44.922,-494.629,-100.586,0.000
1757889881.709,-94.238,-20.996,-351.074,-66.406,0.000
1757889881.713,127.930,3.418,79.102,-11.719,0.000
1757889881.717,42.969,-15.137,73.730,-23.926,0.000
1757889881.721,-164.551,-46.875,-397.461,-63.965,0.000
1757889881.725,-189.941,-40.527,-441.406,-68.848,0.000
1757889881.729,56.641,-20.020,-97.168,-11.230,0.000
1757889881.733,143.066,-20.508,80.566,1.465,0.000
1757889881.737,-131.348,-34.180,-283.203,-75.195,0.000
1757889881.741,-201.660,-35.156,-476.074,-79.590,0.000
1757889881.745,-32.715,-16.602,-200.195,-26.367,0.000
1757889881.748,126.953,-5.859,111.328,16.602,0.000
1757889881.752,-11.230,-34.180,-172.852,-5.371,0.000
1757889881.756,-262.207,-43.945,-525.391,-76.172,0.000
1757889881.760,-87.891,-19.043,-294.922,-47.363,0.000
1757889881.764,114.746,-1.465,191.895,-5.371,0.000
1757889881.768,44.434,-21.484,27.344,-18.066,0.000
1757889881.772,-145.020,-44.434,-432.617,-61.035,0.000
1757889881.776,-201.660,-39.551,-392.090,-83.008,0.000
1757889881.780,72.754,-12.207,45.898,-11.719,0.000
1757889881.784,118.652,-17.090,162.109,16.602,0.000
1757889881.788,-187.988,-61.035,-332.031,-54.688,0.000
1757889881.791,-203.613,-59.570,-544.434,-89.844,0.000
1757889881.795,-3.418,-16.113,-101.074,-61.523,0.000
1757889881.799,120.605,-12.207,218.750,-17.578,0.000
1757889881.803,-19.043,-50.781,-208.008,-32.715,0.000
1757889881.807,-238.770,-49.805,-508.789,-85.938,0.000
1757889881.811,-46.387,-13.672,-138.184,-46.387,0.000
1757889881.815,136.719,-13.672,241.699,15.625,0.000
1757889881.819,-6.836,-39.551,-97.168,0.000,0.000
1757889881.823,-171.875,-42.969,-489.746,-38.086,0.000
1757889881.827,-149.414,-20.996,-324.707,-54.688,0.000
1757889881.831,98.633,-3.418,173.828,-7.324,0.000
1757889881.834,94.727,-31.250,-22.461,16.113,0.000
1757889881.838,-135.254,-42.480,-533.691,-36.621,0.000
1757889881.842,-123.047,-12.695,-334.473,-53.711,0.000
1757889881.846,29.785,6.348,140.625,-33.203,0.000
1757889881.850,109.375,-15.625,184.082,7.812,0.000
1757889881.854,-19.531,-41.504,-259.277,1.465,0.000
1757889881.858,-203.613,-40.527,-394.531,-79.590,0.000
1757889881.862,-41.504,-25.391,-21.484,-65.918,0.000
1757889881.866,111.816,-21.484,231.934,-15.137,0.000
1757889881.870,-26.367,-49.316,-161.621,-25.391,0.000
1757889881.874,-140.137,-49.316,-469.727,-48.340,0.000
1757889881.877,-159.180,-35.156,-230.957,-76.660,0.000
1757889881.881,53.711,-32.227,98.633,-34.180,0.000
1757889881.885,70.801,-38.086,-111.816,-12.695,0.000
1757889881.889,-165.039,-46.875,-460.449,-55.176,0.000
1757889881.893,-111.816,-29.297,-317.871,-49.805,0.000
1757889881.897,26.367,-13.184,123.535,-27.832,0.000
1757889881.901,91.309,-36.133,72.754,-1.953,0.000
1757889881.905,-45.898,-53.711,-363.281,-15.625,0.000
1757889881.909,-184.082,-47.363,-447.266,-64.453,0.000
1757889881.913,5.371,-29.785,-34.668,-45.898,0.000
1757889881.916,84.961,-34.180,165.039,-31.250,0.000
1757889881.920,-37.598,-58.105,-312.500,-41.016,0.000
1757889881.924,-122.070,-55.664,-556.152,-48.828,0.000
1757889881.928,-89.844,-20.996,-283.691,-64.453,0.000
1757889881.932,90.332,-7.812,122.559,-27.832,0.000
1757889881.936,24.414,-38.086,-175.293,-17.090,0.000
1757889881.940,-130.371,-43.945,-519.531,-63.477,0.000
1757889881.944,-52.246,-26.855,-249.512,-100.586,0.000
1757889881.948,14.160,-16.113,208.496,-102.539,0.000
1757889881.952,28.320,-47.363,-24.414,-57.129,0.000
1757889881.956,-90.820,-64.941,-488.770,-64.941,0.000
1757889881.959,-154.785,-35.645,-327.637,-91.797,0.000
1757889881.963,1.953,-20.020,150.391,-55.664,0.000
1757889881.967,-13.672,-50.293,28.809,-40.039,0.000
1757889881.971,-112.793,-74.219,-511.230,-39.062,0.000
1757889881.975,-104.004,-46.387,-521.484,-41.504,0.000
1757889881.979,-72.266,-15.137,-43.945,-61.523,0.000
1757889881.983,37.109,-18.555,179.199,-40.039,0.000
1757889881.987,-30.762,-43.945,-268.066,-37.109,0.000
1757889881.991,-149.414,-46.875,-491.211,-59.570,0.000
1757889881.995,-38.086,-26.367,-101.562,-56.152,0.000
1757889881.999,-4.883,-22.949,245.605,-66.895,0.000
1757889882.002,-33.691,-52.734,-123.535,-37.109,0.000
1757889882.006,-91.309,-57.617,-488.281,-28.809,0.000
1757889882.010,-124.512,-35.156,-286.621,-64.453,0.000
1757889882.014,5.859,-29.297,77.148,-38.086,0.000
1757889882.018,-21.484,-41.016,-178.223,-34.180,0.000
1757889882.022,-93.262,-46.387,-501.953,-41.992,0.000
1757889882.026,-68.848,-41.016,-348.145,-31.250,0.000
1757889882.030,-42.480,-32.715,17.090,-53.223,0.000
1757889882.034,7.812,-36.621,112.305,-53.223,0.000
1757889882.038,-68.359,-51.270,-297.852,-45.410,0.000
1757889882.041,-132.324,-50.293,-442.383,-59.570,0.000
1757889882.045,14.648,-25.879,-43.945,-43.457,0.000
1757889882.049,-6.348,-20.020,204.102,-51.758,0.000
1757889882.053,-64.453,-44.922,-183.105,-30.273,0.000
1757889882.057,-87.402,-51.270,-473.633,-4.395,0.000
1757889882.061,-72.754,-31.250,-285.156,-39.062,0.000
1757889882.065,53.223,-13.672,129.395,-43.457,0.000
1757889882.069,-73.242,-35.156,-27.832,-58.594,0.000
1757889882.073,-110.840,-53.711,-461.914,-48.828,0.000
1757889882.077,-11.719,-30.273,-364.746,-58.594,0.000
1757889882.081,20.020,-8.789,161.133,-91.797,0.000
1757889882.084,-11.230,-36.133,27.832,-72.266,0.000
1757889882.088,-121.094,-51.758,-469.238,-69.824,0.000
1757889882.092,-77.148,-29.297,-369.141,-55.176,0.000
1757889882.096,61.035,-10.254,115.723,-24.902,0.000
1757889882.100,-57.129,-28.320,144.531,-46.875,0.000
1757889882.104,-121.582,-53.711,-343.262,-49.316,0.000
1757889882.108,-75.684,-39.551,-490.234,-47.363,0.000
1757889882.112,-1.953,-12.695,-60.547,-52.734,0.000
1757889882.116,66.895,-19.531,274.414,-26.855,0.000
1757889882.120,-128.906,-48.340,-198.730,-57.617,0.000
1757889882.123,-74.707,-39.551,-537.598,-47.363,0.000
1757889882.127,71.289,-20.996,-166.992,-6.836,0.000
1757889882.131,29.785,-24.414,228.516,-48.828,0.000
1757889882.135,-51.270,-46.875,-47.363,-83.496,0.000
1757889882.139,-144.531,-53.711,-452.148,-74.707,0.000
1757889882.143,-30.273,-36.133,-297.852,-41.992,0.000
1757889882.147,111.816,-25.391,170.410,-16.602,0.000
1757889882.151,-85.449,-48.340,43.457,-62.988,0.000
1757889882.155,-162.598,-63.477,-426.270,-68.848,0.000
1757889882.159,-59.082,-46.387,-377.930,-47.852,0.000
1757889882.163,10.254,-44.922,48.828,-41.504,0.000
1757889882.166,43.945,-58.594,46.387,-19.043,0.000
1757889882.170,-170.898,-61.035,-368.164,-74.707,0.000
1757889882.174,-132.324,-59.570,-457.031,-51.270,0.000
1757889882.178,63.477,-36.133,-112.305,8.301,0.000
1757889882.182,38.086,-27.344,201.172,-31.738,0.000
1757889882.186,-79.102,-53.223,-120.117,-54.688,0.000
1757889882.190,-179.688,-61.523,-441.895,-70.312,0.000
1757889882.194,-15.137,-43.945,-276.855,-53.711,0.000
1757889882.198,148.438,-23.438,148.926,-24.414,0.000
1757889882.202,-89.844,-49.805,-85.449,-98.633,0.000
1757889882.206,-197.754,-69.336,-518.066,-109.375,0.000
1757889882.209,-55.176,-52.246,-458.984,-39.551,0.000
1757889882.213,80.566,-27.832,-43.457,-10.254,0.000
1757889882.217,64.453,-37.598,63.477,-12.695,0.000
1757889882.221,-203.125,-62.500,-398.926,-77.148,0.000
1757889882.225,-146.973,-50.293,-464.355,-65.918,0.000
1757889882.229,120.117,-22.949,-9.766,-14.160,0.000
1757889882.233,56.152,-25.391,215.820,-46.387,0.000
1757889882.237,-139.648,-54.199,-249.023,-73.242,0.000
1757889882.241,-159.180,-59.570,-486.816,-58.594,0.000
1757889882.245,16.602,-38.086,-142.578,-6.348,0.000
1757889882.249,116.699,-28.809,192.383,13.184,0.000
1757889882.252,-76.660,-58.594,-189.453,-31.738,0.000
1757889882.256,-237.793,-65.918,-577.637,-56.152,0.000
1757889882.260,-21.973,-25.391,-306.641,-17.578,0.000
1757889882.264,156.250,-6.348,185.059,1.465,0.000
1757889882.268,3.418,-34.668,3.906,-31.250,0.000
1757889882.272,-182.129,-51.758,-461.914,-70.312,0.000
1757889882.276,-103.027,-29.785,-334.473,-50.293,0.000
1757889882.280,124.023,-6.836,152.832,10.254,0.000
1757889882.284,75.684,-29.297,124.023,3.418,0.000
1757889882.288,-168.457,-52.734,-360.352,-53.711,0.000
1757889882.291,-196.777,-40.039,-458.496,-63.477,0.000
1757889882.295,50.293,-20.996,-68.359,-0.488,0.000
1757889882.299,115.723,-20.996,121.094,16.113,0.000
1757889882.303,-99.609,-38.574,-324.219,-52.734,0.000
1757889882.307,-220.215,-36.133,-490.234,-106.445,0.000
1757889882.311,-21.973,-25.879,-231.934,-52.734,0.000
1757889882.315,145.996,-24.902,152.344,9.277,0.000
1757889882.319,-21.484,-39.062,-63.965,-26.855,0.000
1757889882.323,-207.031,-45.410,-445.801,-76.660,0.000
1757889882.327,-114.746,-30.762,-273.926,-57.129,0.000
1757889882.331,139.160,-12.207,154.785,-1.953,0.000
1757889882.334,70.312,-31.250,47.852,-16.113,0.000
1757889882.338,-184.570,-57.129,-392.090,-60.547,0.000
1757889882.342,-197.754,-52.734,-412.598,-55.664,0.000
1757889882.346,68.359,-23.438,-106.445,2.441,0.000
1757889882.350,116.699,-20.020,86.914,1.953,0.000
1757889882.354,-125.488,-46.387,-239.258,-57.129,0.000
1757889882.358,-223.145,-39.551,-462.891,-94.238,0.000
1757889882.362,-15.625,-15.625,-62.012,-54.199,0.000
1757889882.366,166.992,-6.348,234.375,8.789,0.000
1757889882.370,-48.828,-36.133,-169.434,-22.461,0.000
1757889882.374,-221.680,-51.270,-461.426,-73.730,0.000
1757889882.377,-73.242,-32.227,-191.406,-54.199,0.000
1757889882.381,127.930,-22.461,211.426,5.371,0.000
1757889882.385,45.410,-46.875,-29.297,3.906,0.000
1757889882.389,-185.059,-64.941,-516.602,-51.270,0.000
1757889882.393,-169.434,-38.086,-449.219,-81.543,0.000
1757889882.397,97.168,-10.254,70.801,-23.438,0.000
1757889882.401,128.906,-31.738,93.262,28.320,0.000
1757889882.405,-150.391,-55.664,-390.625,-22.949,0.000
1757889882.409,-176.270,-35.645,-409.668,-51.758,0.000
1757889882.413,30.273,-7.324,64.941,-27.832,0.000
1757889882.417,109.375,-23.438,216.309,-10.742,0.000
1757889882.420,-47.852,-50.293,-270.996,-36.621,0.000
1757889882.424,-175.781,-35.156,-451.660,-68.848,0.000
1757889882.428,-75.195,-8.789,2.930,-53.223,0.000
1757889882.432,135.254,-14.160,237.793,15.137,0.000
1757889882.436,45.410,-38.574,-214.355,28.809,0.000
1757889882.440,-173.828,-31.250,-479.980,-45.898,0.000
1757889882.444,-100.098,-13.184,-162.109,-65.918,0.000
1757889882.448,104.492,-12.695,211.426,0.977,0.000
1757889882.452,63.477,-37.109,-97.168,2.930,0.000
1757889882.456,-125.488,-42.969,-460.938,-51.270,0.000
1757889882.459,-133.301,-25.391,-297.852,-58.594,0.000
1757889882.463,24.414,-7.324,129.883,-30.273,0.000
1757889882.467,133.301,-18.555,145.996,15.625,0.000
1757889882.471,-38.086,-44.434,-291.992,-0.488,0.000
1757889882.475,-189.453,-47.852,-459.473,-53.711,0.000
1757889882.479,-29.297,-21.973,-77.637,-53.711,0.000
1757889882.483,137.695,-18.066,160.156,-11.230,0.000
1757889882.487,-13.672,-34.180,-248.535,-20.020,0.000
1757889882.491,-162.109,-38.086,-439.941,-49.316,0.000
1757889882.495,-67.871,-27.344,-224.609,-43.457,0.000
1757889882.499,55.664,-7.812,102.051,-20.020,0.000
1757889882.502,65.918,-30.762,-79.590,17.090,0.000
1757889882.506,-91.309,-49.316,-456.055,-19.531,0.000
1757889882.510,-142.578,-30.762,-309.082,-59.082,0.000
1757889882.514,54.688,-12.695,171.387,-29.297,0.000
1757889882.518,88.379,-31.250,72.754,-9.766,0.000
1757889882.522,-116.699,-52.246,-388.184,-41.992,0.000
1757889882.526,-128.418,-44.922,-383.789,-76.660,0.000
1757889882.530,10.742,-16.602,45.898,-62.500,0.000
1757889882.534,44.922,-19.043,135.742,-28.809,0.000
1757889882.538,-19.043,-56.641,-360.840,-6.348,0.000
1757889882.541,-134.277,-53.223,-540.527,-39.551,0.000
1757889882.545,-53.223,-11.719,-78.125,-59.570,0.000
1757889882.549,70.312,-9.766,234.375,-24.414,0.000
1757889882.553,6.348,-42.969,-209.961,-14.648,0.000
1757889882.557,-120.117,-40.039,-480.957,-41.016,0.000
1757889882.561,-53.223,-7.812,-129.395,-41.992,0.000
1757889882.565,52.734,-4.395,232.422,-33.203,0.000
1757889882.569,3.418,-32.715,-63.965,-13.672,0.000
1757889882.573,-52.734,-41.504,-453.125,-0.488,0.000
1757889882.577,-92.773,-21.973,-307.129,-35.156,0.000
1757889882.581,4.883,-10.742,197.266,-43.945,0.000
1757889882.584,30.273,-40.527,-31.250,-20.508,0.000
1757889882.588,-63.477,-49.316,-561.523,-33.691,0.000
1757889882.592,-70.801,-20.996,-372.070,-49.805,0.000
1757889882.596,19.531,-4.883,84.473,-24.414,0.000
1757889882.600,26.367,-18.066,173.340,-26.855,0.000
1757889882.604,-35.645,-38.086,-264.648,-38.086,0.000
1757889882.608,-36.133,-30.762,-400.879,-16.602,0.000
1757889882.612,-32.227,-15.625,-7.324,-37.109,0.000
1757889882.616,24.414,-20.996,232.422,-36.133,0.000
1757889882.620,-13.184,-45.410,-145.508,-10.742,0.000
1757889882.624,-106.445,-51.758,-485.840,-34.180,0.000
1757889882.627,-53.711,-43.457,-282.227,-37.109,0.000
1757889882.631,47.852,-32.227,112.793,-43.945,0.000
1757889882.635,-33.691,-34.668,-85.449,-77.637,0.000
1757889882.639,-72.266,-51.758,-455.566,-53.223,0.000
1757889882.643,-20.020,-40.527,-344.238,-35.645,0.000
1757889882.647,-5.371,-21.484,76.172,-57.617,0.000
1757889882.651,-1.465,-38.086,85.938,-46.875,0.000
1757889882.655,-68.359,-62.500,-355.957,-20.020,0.000
1757889882.659,-92.773,-53.223,-440.918,-23.926,0.000
1757889882.663,33.203,-20.996,-38.086,-27.832,0.000
1757889882.667,45.410,-28.320,174.805,-35.156,0.000
1757889882.670,-125.000,-58.594,-274.414,-74.219,0.000
1757889882.674,-67.871,-63.477,-539.551,-40.527,0.000
1757889882.678,31.250,-35.645,-266.602,-16.113,0.000
1757889882.682,1.465,-12.207,149.414,-59.082,0.000
1757889882.686,-82.520,-39.551,-125.000,-71.777,0.000
1757889882.690,-112.793,-48.828,-502.441,-45.410,0.000
1757889882.694,-44.922,-21.973,-252.441,-27.344,0.000
1757889882.698,37.598,-17.090,200.684,-28.809,0.000
1757889882.702,-52.246,-42.969,-53.711,-39.062,0.000
1757889882.706,-164.551,-48.828,-514.160,-41.504,0.000
1757889882.709,-27.344,-25.879,-334.473,-15.625,0.000
1757889882.713,40.527,-7.812,144.531,-45.410,0.000
1757889882.717,-79.102,-36.133,18.066,-94.727,0.000
1757889882.721,-161.621,-62.988,-472.168,-81.543,0.000
1757889882.725,-67.871,-34.180,-472.656,-37.109,0.000
1757889882.729,42.969,-8.789,-7.324,-15.137,0.000
1757889882.733,32.227,-21.973,208.496,-20.996,0.000
1757889882.737,-141.602,-46.387,-263.184,-61.523,0.000
1757889882.741,-141.602,-38.574,-475.098,-56.152,0.000
1757889882.745,58.105,-17.090,-82.031,13.184,0.000
1757889882.749,51.758,-15.137,265.137,-5.859,0.000
1757889882.752,-119.629,-43.457,-104.492,-63.965,0.000
1757889882.756,-160.645,-48.340,-487.793,-60.547,0.000
1757889882.760,-16.602,-27.344,-294.922,-20.508,0.000
1757889882.764,76.660,-16.602,97.168,-2.441,0.000
1757889882.768,-21.484,-29.785,-79.590,-25.391,0.000
1757889882.772,-182.617,-41.992,-447.266,-66.406,0.000
1757889882.776,-57.617,-33.691,-337.891,-24.902,0.000
1757889882.780,128.906,-13.672,75.195,23.438,0.000
1757889882.784,2.930,-21.973,161.133,-28.320,0.000
1757889882.788,-160.645,-48.340,-259.277,-80.566,0.000
1757889882.791,-104.980,-40.039,-420.898,-62.012,0.000
1757889882.795,69.336,-17.090,-7.812,-17.578,0.000
1757889882.799,97.168,-15.137,241.211,-17.578,0.000
1757889882.803,-104.492,-43.945,-113.770,-46.875,0.000
1757889882.807,-208.984,-62.988,-420.898,-59.570,0.000
1757889882.811,39.062,-44.434,-268.555,-7.812,0.000
1757889882.815,160.645,-18.555,177.734,6.348,0.000
1757889882.819,-87.402,-32.715,-14.648,-57.129,0.000
1757889882.823,-201.172,-50.781,-447.754,-75.684,0.000
1757889882.827,-21.484,-25.391,-334.473,-47.852,0.000
1757889882.831,121.582,-2.441,165.039,-20.508,0.000
1757889882.834,17.090,-34.668,122.070,-29.297,0.000
1757889882.838,-160.156,-49.316,-365.234,-44.434,0.000
1757889882.842,-119.629,-26.855,-365.723,-43.457,0.000
1757889882.846,122.559,-13.672,103.027,-20.508,0.000
1757889882.850,74.219,-20.020,164.551,-19.043,0.000
1757889882.854,-222.656,-44.922,-332.031,-78.613,0.000
1757889882.858,-213.867,-35.645,-509.277,-95.215,0.000
1757889882.862,41.016,2.930,-62.500,-56.152,0.000
1757889882.866,61.035,4.883,255.859,-59.570,0.000
1757889882.870,-166.504,-23.438,-209.961,-123.047,0.000
1757889882.874,-275.391,-12.695,-533.691,-166.992,0.000
1757889882.877,-131.836,15.137,-196.777,-143.555,0.000
1757889882.881,56.152,16.113,216.309,-91.797,0.000
1757889882.885,-122.559,-4.395,-52.734,-129.395,0.000
1757889882.889,-375.977,-8.301,-474.609,-196.289,0.000
1757889882.893,-255.371,12.695,-296.387,-181.641,0.000
1757889882.897,-16.602,31.250,163.086,-126.465,0.000
1757889882.901,-138.672,13.672,13.672,-165.039,0.000
1757889882.905,-372.070,-0.977,-458.008,-239.746,0.000
1757889882.909,-361.328,17.090,-434.082,-252.930,0.000
1757889882.913,-155.273,22.461,-9.766,-195.312,0.000
1757889882.916,-74.219,13.184,45.410,-173.340,0.000
1757889882.920,-300.781,0.000,-399.902,-262.207,0.000
1757889882.924,-436.523,-4.395,-529.785,-303.223,0.000
1757889882.928,-202.148,25.879,-222.168,-223.633,0.000
1757889882.932,-26.855,36.133,145.020,-166.504,0.000
1757889882.936,-241.699,1.465,-160.156,-209.961,0.000
1757889882.940,-422.852,-3.418,-498.535,-254.395,0.000
1757889882.944,-312.012,22.949,-313.477,-260.254,0.000
1757889882.948,-74.219,22.461,127.441,-192.383,0.000
1757889882.952,-133.789,-5.859,-46.387,-168.945,0.000
1757889882.956,-391.113,-23.438,-455.078,-233.398,0.000
1757889882.959,-376.953,-27.344,-451.660,-229.004,0.000
1757889882.963,-68.848,4.883,-45.410,-160.645,0.000
1757889882.967,-33.691,5.859,137.695,-145.996,0.000
1757889882.971,-277.832,-35.156,-311.523,-186.035,0.000
1757889882.975,-331.055,-38.574,-405.273,-196.777,0.000
1757889882.979,-138.184,-39.062,7.324,-148.438,0.000
1757889882.983,43.457,-29.297,240.723,-86.426,0.000
1757889882.987,-152.832,-51.758,-210.449,-125.488,0.000
1757889882.991,-302.734,-69.824,-419.922,-164.062,0.000
1757889882.995,-126.953,-49.316,4.395,-129.395,0.000
1757889882.999,73.242,-42.480,241.211,-76.172,0.000
1757889883.002,-42.480,-77.637,-134.766,-57.617,0.000
1757889883.006,-229.004,-94.238,-512.207,-103.516,0.000
1757889883.010,-143.555,-56.641,-256.348,-111.328,0.000
1757889883.014,47.852,-43.457,235.352,-36.621,0.000
1757889883.018,89.844,-67.871,71.289,11.719,0.000
1757889883.022,-111.328,-76.172,-386.230,-27.832,0.000
1757889883.026,-196.777,-58.594,-254.883,-64.453,0.000
1757889883.030,50.293,-41.016,221.191,-12.207,0.000
1757889883.034,163.574,-52.246,204.102,38.574,0.000
1757889883.038,-53.223,-73.242,-284.180,7.812,0.000
1757889883.042,-135.254,-61.035,-433.105,-24.414,0.000
1757889883.045,6.836,-34.180,12.207,-1.465,0.000
1757889883.049,130.371,-40.039,169.922,38.574,0.000
1757889883.053,70.801,-69.336,-315.430,37.598,0.000
1757889883.057,-72.266,-61.035,-461.914,0.977,0.000
1757889883.061,-71.289,-43.457,-74.219,-19.043,0.000
1757889883.065,133.789,-36.621,279.297,25.391,0.000
1757889883.069,130.859,-57.129,13.184,57.617,0.000
1757889883.073,-99.609,-65.430,-325.684,18.066,0.000
1757889883.077,-96.191,-42.969,-136.230,-3.906,0.000
1757889883.081,96.680,-21.973,248.047,28.809,0.000
1757889883.084,133.789,-42.969,184.082,57.617,0.000
1757889883.088,5.859,-66.406,-201.172,41.992,0.000
1757889883.092,-91.797,-63.477,-317.383,8.301,0.000
1757889883.096,-11.230,-45.410,17.090,12.207,0.000
1757889883.100,152.344,-38.086,182.129,59.570,0.000
1757889883.104,56.152,-62.012,-177.734,56.641,0.000
1757889883.108,-95.215,-59.570,-391.113,12.207,0.000
1757889883.112,4.395,-36.621,-17.090,16.113,0.000
1757889883.116,148.926,-28.809,296.387,28.320,0.000
1757889883.120,75.684,-53.223,-32.715,34.180,0.000
1757889883.124,-52.246,-61.035,-371.582,29.785,0.000
1757889883.127,-48.340,-39.062,-183.105,8.789,0.000
1757889883.131,63.477,-23.438,223.633,7.812,0.000
1757889883.135,90.820,-51.270,2.441,33.691,0.000
1757889883.139,-49.316,-77.637,-459.473,12.207,0.000
1757889883.143,-74.707,-50.781,-380.859,-27.344,0.000
1757889883.147,53.711,-19.043,118.652,0.488,0.000
1757889883.151,83.984,-34.180,112.793,20.996,0.000
1757889883.155,-14.160,-53.711,-374.512,2.930,0.000
1757889883.159,-56.152,-39.551,-392.090,-9.766,0.000
1757889883.163,19.531,-24.414,73.730,-1.953,0.000
1757889883.166,88.867,-38.574,218.750,25.879,0.000
1757889883.170,47.852,-42.969,-246.094,40.527,0.000
1757889883.174,-28.809,-18.066,-450.684,12.695,0.000
1757889883.178,-16.113,-3.418,-1.953,-21.484,0.000
1757889883.182,47.363,-13.184,251.953,-2.930,0.000
1757889883.186,25.391,-36.133,-224.121,18.066,0.000
1757889883.190,-35.645,-29.297,-500.488,15.625,0.000
1757889883.194,-18.066,-13.184,-189.453,-1.953,0.000
1757889883.198,10.254,-15.137,192.383,-32.715,0.000
1757889883.202,5.859,-41.992,-82.031,-16.113,0.000
1757889883.206,-45.898,-50.293,-472.656,-8.789,0.000
1757889883.209,-53.711,-30.273,-314.453,-26.367,0.000
1757889883.213,20.996,-12.207,119.629,-30.762,0.000
1757889883.217,27.832,-31.250,152.344,-17.578,0.000
1757889883.221,-65.430,-49.805,-290.039,-4.883,0.000
1757889883.225,-61.035,-38.574,-468.750,15.137,0.000
1757889883.229,24.902,-21.973,-66.895,7.812,0.000
1757889883.233,0.977,-19.531,170.898,-50.781,0.000
1757889883.237,-33.691,-40.527,-233.887,-45.898,0.000
1757889883.241,-69.336,-43.457,-424.316,-9.277,0.000
1757889883.245,-12.695,-20.996,-178.223,5.371,0.000
1757889883.248,48.828,0.000,154.297,10.742,0.000
1757889883.252,0.488,-17.578,-18.555,8.789,0.000
1757889883.256,-86.426,-34.668,-431.641,-2.441,0.000
1757889883.260,-9.277,-16.602,-290.039,-5.371,0.000
1757889883.264,70.312,1.953,206.543,-14.160,0.000
1757889883.268,-51.270,-19.043,79.590,-36.133,0.000
1757889883.272,-90.820,-40.039,-365.234,-23.438,0.000
1757889883.276,-16.602,-29.297,-352.539,8.301,0.000
1757889883.280,53.711,-9.766,47.363,-2.441,0.000
1757889883.284,7.812,-21.484,177.734,-39.551,0.000
1757889883.288,-83.496,-62.012,-281.250,-34.180,0.000
1757889883.291,-94.238,-58.105,-515.137,-27.344,0.000
1757889883.295,67.383,-14.160,-88.867,-11.719,0.000
1757889883.299,41.504,-14.160,238.281,-27.832,0.000
1757889883.303,-119.629,-43.457,-185.547,-41.016,0.000
1757889883.307,-94.238,-36.621,-468.750,1.953,0.000
1757889883.311,46.387,-17.090,-78.125,12.695,0.000
1757889883.315,47.852,-19.531,271.484,-26.367,0.000
1757889883.319,-77.637,-47.363,-79.102,-54.199,0.000
1757889883.323,-118.164,-57.129,-481.445,-50.293,0.000
1757889883.327,-33.203,-33.203,-315.918,-29.297,0.000
1757889883.331,101.562,-12.695,181.641,-10.254,0.000
1757889883.334,-39.062,-44.434,-21.484,-60.059,0.000
1757889883.338,-141.602,-56.641,-527.832,-77.637,0.000
1757889883.342,-49.316,-27.832,-375.977,-35.156,0.000
1757889883.346,102.539,-15.625,80.078,8.301,0.000
1757889883.350,12.207,-26.855,194.336,-21.973,0.000
1757889883.354,-142.578,-43.945,-260.254,-53.711,0.000
1757889883.358,-92.285,-40.527,-411.621,-28.320,0.000
1757889883.362,49.805,-23.926,-2.441,-3.418,0.000
1757889883.366,103.516,-21.973,248.047,6.348,0.000
1757889883.370,-114.746,-48.828,-111.816,-41.992,0.000
1757889883.374,-143.066,-53.711,-457.520,-50.781,0.000
1757889883.377,-5.371,-40.039,-261.719,-17.578,0.000
1757889883.381,117.676,-30.762,121.582,8.301,0.000
1757889883.385,-63.477,-39.062,-78.613,-42.969,0.000
1757889883.389,-189.941,-57.129,-454.590,-64.941,0.000
1757889883.393,-48.828,-42.480,-299.316,-33.691,0.000
1757889883.397,120.117,-14.648,154.785,-6.836,0.000
1757889883.401,37.109,-29.297,182.617,-21.484,0.000
1757889883.405,-207.031,-51.758,-237.793,-83.496,0.000
1757889883.409,-109.375,-42.480,-370.605,-65.918,0.000
1757889883.413,104.492,-15.625,41.016,-7.812,0.000
1757889883.417,114.746,-17.090,231.934,6.836,0.000
1757889883.420,-156.250,-49.316,-215.820,-53.223,0.000
1757889883.424,-150.391,-59.570,-474.609,-55.664,0.000
1757889883.428,33.203,-33.691,-106.445,-9.766,0.000
1757889883.432,137.695,-19.043,256.836,3.418,0.000
1757889883.436,-61.523,-51.758,-42.969,-59.570,0.000
1757889883.440,-229.004,-76.172,-434.082,-78.613,0.000
1757889883.444,-3.418,-42.969,-310.547,-20.020,0.000
1757889883.448,186.035,-12.207,198.242,-8.301,0.000
1757889883.452,11.230,-42.969,51.270,-73.242,0.000
1757889883.456,-228.516,-63.965,-434.570,-130.859,0.000
1757889883.459,-77.637,-45.410,-288.086,-69.336,0.000
1757889883.463,97.168,-25.391,197.266,-8.789,0.000
1757889883.467,81.543,-42.480,134.277,4.883,0.000
1757889883.471,-166.992,-70.801,-381.348,-29.785,0.000
1757889883.475,-168.945,-41.504,-440.918,-34.668,0.000
1757889883.479,81.055,-10.742,49.805,13.184,0.000
1757889883.483,175.781,-17.578,230.957,22.461,0.000
1757889883.487,-85.938,-41.992,-232.422,-77.637,0.000
1757889883.491,-225.098,-45.898,-435.547,-124.023,0.000
1757889883.495,22.949,-24.414,-23.438,-23.438,0.000
1757889883.499,129.395,-16.602,297.852,16.113,0.000
1757889883.502,-4.883,-42.969,-64.453,-3.418,0.000
1757889883.506,-218.750,-53.223,-445.312,-47.363,0.000
1757889883.510,-99.609,-36.621,-231.934,-42.480,0.000
1757889883.514,101.562,-35.156,138.672,20.020,0.000
1757889883.518,100.098,-38.086,-84.473,13.672,0.000
1757889883.522,-174.316,-30.762,-432.129,-99.609,0.000
1757889883.526,-189.453,-31.250,-303.711,-109.375,0.000
1757889883.530,90.332,-23.438,121.094,-14.160,0.000
1757889883.534,93.750,-23.438,210.938,5.859,0.000
1757889883.538,-124.023,-51.758,-241.699,-32.715,0.000
1757889883.542,-230.469,-46.875,-449.219,-64.453,0.000
1757889883.545,4.883,-11.719,-27.832,-35.156,0.000
1757889883.549,118.652,-10.254,250.000,-4.395,0.000
1757889883.553,-16.113,-39.062,-111.816,19.531,0.000
1757889883.557,-256.836,-47.852,-427.734,-56.641,0.000
1757889883.561,-95.703,-29.785,-255.859,-87.402,0.000
1757889883.565,131.836,-21.973,171.387,-24.902,0.000
1757889883.569,10.254,-49.805,34.668,-30.762,0.000
1757889883.573,-204.590,-71.289,-405.762,-103.516,0.000
1757889883.577,-188.477,-45.898,-341.797,-126.953,0.000
1757889883.581,84.961,-18.066,149.902,-54.199,0.000
1757889883.584,84.961,-35.645,167.480,-2.441,0.000
1757889883.588,-126.465,-62.012,-307.617,-30.273,0.000
1757889883.592,-236.328,-51.758,-402.344,-72.754,0.000
1757889883.596,22.461,-25.391,47.852,-10.254,0.000
1757889883.600,137.695,-43.945,179.199,37.109,0.000
1757889883.604,-14.648,-74.707,-291.992,24.902,0.000
1757889883.608,-142.090,-48.340,-492.676,-25.879,0.000
1757889883.612,-13.672,-5.371,-68.848,-17.578,0.000
1757889883.616,175.781,-21.484,273.438,42.969,0.000
1757889883.620,78.125,-50.293,-126.953,39.551,0.000
1757889883.624,-122.559,-43.945,-485.352,-14.648,0.000
1757889883.627,-96.191,-20.508,-151.855,-22.949,0.000
1757889883.631,138.184,-23.438,256.836,8.301,0.000
1757889883.635,77.148,-50.293,1.465,31.738,0.000
1757889883.639,-77.148,-42.969,-421.387,53.223,0.000
1757889883.643,-105.469,-27.832,-257.324,15.625,0.000
1757889883.647,51.270,-21.484,189.941,31.250,0.000
1757889883.651,139.648,-45.898,102.051,18.555,0.000
1757889883.655,63.477,-51.270,-360.352,-28.320,0.000
1757889883.659,-63.477,-21.484,-385.742,-63.477,0.000
1757889883.663,39.551,-8.301,64.453,-23.438,0.000
1757889883.666,217.285,-19.043,164.551,46.875,0.000
1757889883.670,71.289,-33.691,-255.859,20.020,0.000
1757889883.674,-68.848,-44.434,-395.508,0.000,0.000
1757889883.678,8.789,-31.250,-2.930,31.738,0.000
1757889883.682,143.555,-5.859,288.086,63.965,0.000
1757889883.686,100.586,-19.043,11.230,79.590,0.000
1757889883.690,-19.531,-31.250,-309.570,32.227,0.000
1757889883.694,-66.406,-3.906,-137.695,-15.625,0.000
1757889883.698,91.309,21.973,245.605,36.133,0.000
1757889883.702,111.816,-19.531,39.551,77.148,0.000
1757889883.706,-65.918,-52.246,-357.910,83.496,0.000
1757889883.709,-88.379,-14.160,-380.859,86.914,0.000
1757889883.713,55.664,17.578,0.488,101.074,0.000
1757889883.717,97.168,15.625,222.656,98.145,0.000
1757889883.721,-35.645,-5.371,-172.363,66.895,0.000
1757889883.725,-99.609,4.883,-283.203,-9.766,0.000
1757889883.729,-67.383,54.199,148.438,-45.410,0.000
1757889883.733,16.113,38.086,332.031,-5.371,0.000
1757889883.737,-36.133,1.465,7.812,7.812,0.000
1757889883.741,-150.391,22.461,-234.375,18.555,0.000
1757889883.745,-125.488,51.758,61.035,9.766,0.000
1757889883.749,-20.508,65.918,310.059,-42.969,0.000
1757889883.752,-84.473,44.434,-6.348,-45.898,0.000
1757889883.756,-185.059,36.133,-401.855,-43.457,0.000
1757889883.760,-162.598,70.312,-232.422,-77.148,0.000
1757889883.764,-91.309,83.984,228.516,-57.129,0.000
1757889883.768,7.324,62.500,84.961,-8.789,0.000
1757889883.772,39.551,51.270,-305.176,21.973,0.000
1757889883.776,108.887,68.359,-187.012,66.406,0.000
1757889883.780,229.980,82.520,229.004,80.566,0.000
1757889883.784,227.539,53.223,222.656,99.609,0.000
1757889883.788,135.254,17.578,-216.309,149.414,0.000
1757889883.792,115.234,41.504,-316.895,85.938,0.000
1757889883.795,66.895,59.570,58.105,-36.621,0.000
1757889883.799,-35.156,15.137,183.105,-36.133,0.000
1757889883.803,-146.973,15.137,-259.766,-7.812,0.000
1757889883.807,-228.027,40.039,-432.129,-22.949,0.000
1757889883.811,-202.637,42.480,-25.391,-35.645,0.000
1757889883.815,-190.430,30.762,302.734,-67.383,0.000
1757889883.819,-285.156,-7.324,7.324,-74.707,0.000
1757889883.823,-359.375,-19.531,-293.457,-36.621,0.000
1757889883.827,-328.125,-7.324,-30.762,-53.223,0.000
1757889883.831,-270.508,9.766,313.477,-106.445,0.000
1757889883.834,-250.977,-12.207,204.590,-112.793,0.000
1757889883.838,-293.457,-49.805,-114.746,-61.035,0.000
1757889883.842,-319.824,-40.039,-166.016,-37.109,0.000
1757889883.846,-202.148,-20.508,160.156,-9.766,0.000
1757889883.850,-121.582,-20.020,237.305,31.250,0.000
1757889883.854,-222.168,-47.852,-65.430,-16.113,0.000
1757889883.858,-218.262,-58.105,-212.891,-5.371,0.000
1757889883.862,-116.699,-34.180,83.008,-3.906,0.000
1757889883.866,-134.766,-47.363,314.453,-41.016,0.000
1757889883.870,-222.168,-78.125,36.621,7.324,0.000
1757889883.874,-264.160,-51.270,-230.469,29.785,0.000
1757889883.877,-227.051,-18.066,-1.953,-9.766,0.000
1757889883.881,-138.672,-11.230,333.496,23.438,0.000
1757889883.885,-183.594,-40.039,91.797,66.895,0.000
1757889883.889,-280.762,-61.035,-379.395,46.875,0.000
1757889883.893,-119.141,-33.203,-318.848,83.008,0.000
1757889883.897,116.699,2.441,202.148,126.953,0.000
1757889883.901,106.934,-11.230,213.379,75.195,0.000
1757889883.905,-32.227,-40.527,-239.258,22.461,0.000
1757889883.909,-94.727,-32.715,-263.672,32.715,0.000
1757889883.913,-83.008,-11.230,181.641,45.410,0.000
1757889883.917,-107.910,-17.578,269.043,64.941,0.000
1757889883.920,-241.211,-44.922,-142.090,20.996,0.000
1757889883.924,-333.496,-31.250,-298.828,-36.133,0.000
1757889883.928,-308.105,-11.230,59.570,-22.461,0.000
1757889883.932,-342.285,-30.273,252.441,-41.992,0.000
1757889883.936,-486.328,-49.316,-186.035,-92.773,0.000
1757889883.940,-565.430,-35.156,-474.121,-83.984,0.000
1757889883.944,-535.156,-10.742,-143.555,-47.852,0.000
1757889883.948,-487.305,-7.812,234.863,-53.223,0.000
1757889883.952,-553.711,-27.832,26.855,-73.242,0.000
1757889883.956,-672.852,-49.805,-354.004,-104.980,0.000
1757889883.959,-645.020,-40.039,-235.352,-128.418,0.000
1757889883.963,-544.922,-14.160,198.730,-118.164,0.000
1757889883.967,-558.594,-26.367,218.750,-124.512,0.000
1757889883.971,-664.062,-57.617,-187.012,-147.949,0.000
1757889883.975,-674.805,-32.227,-381.348,-166.504,0.000
1757889883.979,-568.848,-9.766,-15.137,-174.316,0.000
1757889883.983,-505.859,-20.996,213.867,-175.293,0.000
1757889883.987,-555.176,-30.762,-206.055,-160.645,0.000
1757889883.991,-580.078,-24.902,-431.152,-168.457,0.000
1757889883.995,-463.867,-5.371,-189.453,-145.996,0.000
1757889883.999,-355.469,2.930,159.180,-99.609,0.000
1757889884.002,-418.945,-16.602,9.277,-112.793,0.000
1757889884.006,-523.926,-31.738,-359.375,-134.277,0.000
1757889884.010,-478.516,-6.348,-179.199,-122.070,0.000
1757889884.014,-413.574,9.277,232.910,-105.957,0.000
1757889884.018,-503.418,-18.066,171.387,-138.672,0.000
1757889884.022,-591.797,-36.621,-257.812,-196.777,0.000
1757889884.026,-552.734,-29.785,-354.492,-184.082,0.000
1757889884.030,-413.574,1.953,68.848,-154.785,0.000
1757889884.034,-364.258,5.371,224.609,-126.465,0.000
1757889884.038,-473.145,-34.180,-229.980,-135.742,0.000
1757889884.041,-467.773,-23.926,-505.371,-141.602,0.000
1757889884.045,-306.641,6.348,-55.176,-104.492,0.000
1757889884.049,-254.395,6.836,231.445,-107.910,0.000
1757889884.053,-345.703,5.859,188.477,-137.207,0.000
1757889884.057,-375.977,18.066,335.449,-152.832,0.000
1757889884.061,-276.855,38.086,464.844,-108.887,0.000
1757889884.065,-187.988,33.691,511.230,-26.367,0.000
1757889884.069,-234.863,-0.488,367.676,-28.809,0.000
1757889884.073,-312.500,-6.348,272.461,-84.961,0.000
1757889884.077,-260.742,17.578,353.027,-94.727,0.000
1757889884.081,-145.996,21.973,477.539,-34.180,0.000
1757889884.084,-163.086,4.395,313.477,-37.598,0.000
1757889884.088,-237.305,9.277,185.059,-104.492,0.000
1757889884.092,-227.051,16.602,292.969,-112.305,0.000
1757889884.096,-155.273,6.348,366.211,-87.402,0.000
1757889884.100,-149.902,-9.766,272.461,-47.363,0.000
1757889884.104,-252.441,-20.508,-57.617,-63.477,0.000
1757889884.108,-286.621,-20.020,-235.352,-75.684,0.000
1757889884.112,-202.637,-18.555,41.992,-30.273,0.000
1757889884.116,-151.367,-5.859,228.027,-14.648,0.000
1757889884.120,-259.766,-3.906,-203.125,-30.273,0.000
1757889884.124,-332.520,-2.930,-539.062,-58.594,0.000
1757889884.127,-263.672,4.395,-377.441,-37.598,0.000
1757889884.131,-179.688,15.137,-188.477,1.953,0.000
1757889884.135,-221.191,-0.977,-354.492,-20.508,0.000
1757889884.139,-300.781,-17.578,-522.461,-70.801,0.000
1757889884.143,-270.020,22.461,-459.961,-72.266,0.000
1757889884.147,-182.129,31.250,-89.355,-49.316,0.000
1757889884.151,-189.941,0.977,-31.250,-14.160,0.000
1757889884.155,-270.996,-13.672,-454.102,-26.367,0.000
1757889884.159,-262.207,-14.160,-495.117,-66.406,0.000
1757889884.163,-146.484,-1.465,-161.621,-42.480,0.000
1757889884.167,-93.262,5.859,63.965,-4.395,0.000
1757889884.170,-198.730,-20.996,-320.801,-16.113,0.000
1757889884.174,-230.469,-12.207,-567.871,-25.391,0.000
1757889884.178,-95.703,28.809,-328.125,-8.789,0.000
1757889884.182,-24.902,22.461,93.750,0.977,0.000
1757889884.186,-106.445,-35.645,-163.086,45.410,0.000
1757889884.190,-164.062,-29.785,-530.273,53.223,0.000
1757889884.194,-124.512,21.973,-325.684,29.297,0.000
1757889884.198,-23.926,29.785,162.598,36.621,0.000
1757889884.202,-61.035,12.207,29.297,36.621,0.000
1757889884.206,-174.805,-35.645,-455.566,8.301,0.000
1757889884.209,-114.746,-9.766,-384.766,2.930,0.000
1757889884.213,2.930,41.504,63.965,36.621,0.000
1757889884.217,-11.719,3.906,150.391,77.148,0.000
1757889884.221,-127.930,-35.645,-337.891,58.105,0.000
1757889884.225,-114.746,-12.695,-447.754,9.766,0.000
1757889884.229,2.930,31.738,15.137,31.250,0.000
1757889884.233,43.945,19.043,245.117,62.500,0.000
1757889884.237,-52.734,-20.996,-186.035,64.453,0.000
1757889884.241,-115.723,-17.090,-403.320,70.312,0.000
1757889884.245,-32.715,19.531,-15.137,86.914,0.000
1757889884.249,62.988,22.949,300.293,96.680,0.000
1757889884.252,-3.906,-0.488,-36.133,100.098,0.000
1757889884.256,-109.375,-1.953,-411.133,98.633,0.000
1757889884.260,-50.293,11.719,-228.516,94.727,0.000
1757889884.264,50.781,17.090,147.949,108.398,0.000
1757889884.268,24.902,9.277,-33.691,104.004,0.000
1757889884.272,-72.266,-5.859,-402.344,47.363,0.000
1757889884.276,-67.383,-16.602,-277.832,21.484,0.000
1757889884.280,57.129,16.602,163.574,46.387,0.000
1757889884.284,78.125,47.363,234.375,60.547,0.000
1757889884.288,-40.527,26.367,-170.898,51.270,0.000
1757889884.291,-69.336,10.742,-284.180,52.734,0.000
1757889884.295,38.086,26.367,96.191,48.340,0.000
1757889884.299,89.355,27.832,234.375,81.543,0.000
1757889884.303,71.777,16.602,277.344,88.379,0.000
1757889884.307,85.938,9.766,373.535,40.527,0.000
1757889884.311,137.207,7.324,320.312,35.645,0.000
1757889884.315,240.723,32.227,406.250,45.410,0.000
1757889884.319,175.293,8.789,243.652,9.766,0.000
1757889884.323,48.340,-20.996,-83.496,-12.207,0.000
1757889884.327,79.102,-10.742,8.301,-18.555,0.000
1757889884.331,192.871,5.859,318.359,-17.578,0.000
1757889884.334,177.734,-13.184,203.125,22.949,0.000
1757889884.338,61.523,-49.316,-210.449,23.926,0.000
1757889884.342,32.715,-20.020,-264.648,-0.977,0.000
1757889884.346,117.188,11.230,161.133,-10.254,0.000
1757889884.350,166.016,0.977,209.961,2.441,0.000
1757889884.354,51.270,-10.254,-252.441,-18.555,0.000
1757889884.358,-14.160,-20.996,-481.934,-62.012,0.000
1757889884.362,81.543,18.555,-58.594,-56.641,0.000
1757889884.366,145.996,45.410,280.273,-39.551,0.000
1757889884.370,78.125,5.371,-126.953,-36.133,0.000
1757889884.374,9.277,-1.465,-475.586,-35.156,0.000
1757889884.377,50.781,25.879,-179.199,-18.066,0.000
1757889884.381,158.691,29.785,230.957,15.625,0.000
1757889884.385,132.324,0.977,10.742,15.137,0.000
1757889884.389,20.508,-21.973,-387.207,-18.555,0.000
1757889884.393,23.438,-16.602,-262.695,-15.137,0.000
1757889884.397,139.648,37.598,154.785,16.602,0.000
1757889884.401,120.605,44.922,170.410,31.738,0.000
1757889884.405,24.414,16.113,-281.738,52.246,0.000
1757889884.409,22.949,24.902,-310.059,73.242,0.000
1757889884.413,79.590,27.344,128.418,44.434,0.000
1757889884.416,128.906,20.996,178.223,38.086,0.000
1757889884.420,70.801,25.879,-209.961,3.906,0.000
1757889884.424,8.301,25.879,-359.375,-40.527,0.000
1757889884.428,73.242,33.203,20.508,10.742,0.000
1757889884.432,152.344,39.551,260.742,57.129,0.000
1757889884.436,74.707,14.648,30.273,47.852,0.000
1757889884.440,-14.160,14.648,-244.141,33.691,0.000
1757889884.444,28.809,31.738,-112.305,39.551,0.000
1757889884.448,125.000,41.992,248.535,50.781,0.000
1757889884.452,87.402,28.809,22.461,41.016,0.000
1757889884.456,-11.230,9.277,-330.078,57.129,0.000
1757889884.459,-18.555,14.648,-345.215,86.914,0.000
1757889884.463,68.848,35.156,3.418,89.844,0.000
1757889884.467,105.469,38.086,194.336,94.727,0.000
1757889884.471,12.207,13.672,-224.609,83.984,0.000
1757889884.475,-28.809,13.672,-362.305,70.312,0.000
1757889884.479,56.152,29.785,49.805,71.289,0.000
1757889884.483,118.164,22.949,281.250,89.355,0.000
1757889884.487,31.250,-3.906,-101.562,89.355,0.000
1757889884.491,-31.738,-4.395,-391.602,84.473,0.000
1757889884.495,14.648,10.742,-97.168,98.145,0.000
1757889884.499,104.980,13.672,224.121,104.980,0.000
1757889884.502,40.527,-15.137,-90.820,96.191,0.000
1757889884.506,-40.039,-23.926,-503.906,87.402,0.000
1757889884.510,13.672,5.859,-334.473,69.824,0.000
1757889884.514,72.754,-6.348,142.090,72.266,0.000
1757889884.518,79.590,-31.738,12.207,94.238,0.000
1757889884.522,-10.254,-16.602,-441.895,74.219,0.000
1757889884.526,-23.926,13.672,-372.559,48.340,0.000
1757889884.530,46.875,26.367,72.266,20.996,0.000
1757889884.534,44.434,6.348,65.430,10.254,0.000
1757889884.538,-54.688,-15.625,-406.738,-8.301,0.000
1757889884.542,-97.168,-6.836,-486.328,-37.109,0.000
1757889884.545,-33.203,20.020,-198.242,-23.438,0.000
1757889884.549,6.836,33.691,-56.152,-4.395,0.000
1757889884.553,-70.312,36.133,-415.039,-43.945,0.000
1757889884.557,-144.043,34.668,-528.320,-92.285,0.000
1757889884.561,-103.027,50.293,-285.156,-79.102,0.000
1757889884.565,-37.109,60.059,-114.746,-47.363,0.000
1757889884.569,-101.074,55.176,-355.957,-96.191,0.000
1757889884.573,-191.895,56.152,-510.742,-131.348,0.000
1757889884.577,-171.387,55.664,-414.062,-105.957,0.000
1757889884.581,-99.121,71.289,-70.801,-108.398,0.000
1757889884.584,-122.559,85.938,-43.945,-143.066,0.000
1757889884.588,-217.773,65.430,-458.008,-163.086,0.000
1757889884.592,-238.281,52.734,-511.719,-163.086,0.000
1757889884.596,-155.762,88.867,-287.598,-135.742,0.000
1757889884.600,-120.117,102.051,-217.285,-137.207,0.000
1757889884.604,-213.379,82.520,-446.289,-168.945,0.000
1757889884.608,-250.977,78.613,-523.926,-156.738,0.000
1757889884.612,-150.391,91.309,-297.852,-128.906,0.000
1757889884.616,-70.801,90.820,57.129,-101.562,0.000
1757889884.620,-148.926,44.922,-227.051,-91.309,0.000
1757889884.624,-211.426,37.109,-538.086,-96.191,0.000
1757889884.627,-149.414,54.199,-358.398,-65.430,0.000
1757889884.631,-61.035,59.570,7.324,-33.691,0.000
1757889884.635,-85.449,35.645,-118.164,-18.555,0.000
1757889884.639,-157.715,-11.230,-574.707,-13.672,0.000
1757889884.643,-106.934,34.180,-520.996,-2.930,0.000
1757889884.647,14.160,84.961,-32.715,-3.906,0.000
1757889884.651,1.465,37.109,50.781,-23.438,0.000
1757889884.655,-73.730,-1.953,-417.969,-22.461,0.000
1757889884.659,-38.574,7.812,-496.094,16.602,0.000
1757889884.663,85.938,25.391,-45.410,65.430,0.000
1757889884.666,125.000,14.648,175.293,61.035,0.000
1757889884.670,46.875,-19.531,-294.434,40.039,0.000
1757889884.674,30.273,-27.344,-499.512,38.574,0.000
1757889884.678,134.277,-11.719,-152.344,80.566,0.000
1757889884.682,198.730,-27.344,126.465,118.652,0.000
1757889884.686,111.816,-54.688,-273.926,120.605,0.000
1757889884.690,55.176,-45.898,-532.227,83.008,0.000
1757889884.694,107.422,-32.227,-278.320,65.918,0.000
1757889884.698,195.801,-35.645,72.266,83.496,0.000
1757889884.702,154.297,-57.129,-95.703,82.520,0.000
1757889884.706,51.758,-79.590,-443.359,44.922,0.000
1757889884.709,47.852,-67.871,-380.859,24.902,0.000
1757889884.713,145.508,-43.457,-31.738,47.363,0.000
1757889884.717,141.113,-61.035,29.297,23.926,0.000
1757889884.721,-0.977,-83.984,-378.906,-27.832,0.000
1757889884.725,-20.508,-80.078,-473.633,-39.062,0.000
1757889884.729,93.262,-62.500,-192.383,-23.926,0.000
1757889884.733,132.324,-58.594,39.062,-16.602,0.000
1757889884.737,11.719,-78.125,-266.602,-56.641,0.000
1757889884.741,-97.656,-89.844,-472.168,-99.121,0.000
1757889884.745,-76.660,-85.449,-333.984,-104.980,0.000
1757889884.749,-14.160,-65.430,-31.738,-107.910,0.000
1757889884.752,-121.094,-79.590,-134.766,-152.832,0.000
1757889884.756,-255.371,-103.516,-492.676,-201.172,0.000
1757889884.760,-247.559,-71.777,-325.684,-225.098,0.000
1757889884.764,-201.660,-45.898,138.672,-246.582,0.000
1757889884.768,-301.758,-84.961,-31.738,-269.531,0.000
1757889884.772,-462.891,-116.211,-495.605,-312.500,0.000
1757889884.776,-455.566,-96.191,-472.656,-321.777,0.000
1757889884.780,-283.691,-63.477,-65.430,-315.430,0.000
1757889884.784,-156.738,-63.965,169.434,-326.172,0.000
1757889884.788,-244.141,-87.402,-277.832,-332.031,0.000
1757889884.791,-293.945,-82.520,-534.180,-350.098,0.000
1757889884.795,-166.016,-47.363,-130.371,-342.773,0.000
1757889884.799,-113.770,-46.875,208.984,-319.336,0.000
1757889884.803,-137.695,-76.172,-176.270,-314.941,0.000
1757889884.807,-10.254,-87.891,-477.051,-285.645,0.000
1757889884.811,260.254,-74.707,-106.934,-217.773,0.000
1757889884.815,552.734,-63.965,266.602,-111.328,0.000
1757889884.819,622.070,-88.867,-13.184,-41.016,0.000
1757889884.823,498.047,-98.145,-393.555,-43.457,0.000
1757889884.827,484.863,-73.242,-303.711,-55.176,0.000
1757889884.831,642.578,-53.711,152.344,-16.113,0.000
1757889884.835,693.848,-77.148,-1.953,34.180,0.000
1757889884.838,551.270,-99.121,-484.375,14.648,0.000
1757889884.842,447.754,-77.637,-362.305,-23.438,0.000
1757889884.846,528.320,-53.711,81.543,-23.926,0.000
1757889884.850,617.676,-61.523,212.891,6.836,0.000
1757889884.854,495.605,-88.379,-206.055,16.602,0.000
1757889884.858,335.938,-103.027,-365.234,-9.766,0.000
1757889884.862,349.121,-74.707,8.301,-40.039,0.000
1757889884.866,453.125,-42.969,259.766,-47.852,0.000
1757889884.870,396.484,-66.406,-60.547,-37.598,0.000
1757889884.874,259.766,-76.172,-392.578,-39.551,0.000
1757889884.877,216.309,-51.270,-272.461,-69.336,0.000
1757889884.881,323.242,-40.527,79.590,-43.945,0.000
1757889884.885,349.609,-50.293,17.578,-1.465,0.000
1757889884.889,218.262,-60.059,-314.453,-21.973,0.000
1757889884.893,158.203,-49.805,-294.434,-47.852,0.000
1757889884.897,261.230,-26.367,67.871,-62.012,0.000
1757889884.901,320.312,-30.762,173.340,-91.309,0.000
1757889884.905,278.320,-54.199,-127.930,-89.355,0.000
1757889884.909,199.707,-66.406,-336.914,-69.824,0.000
1757889884.913,128.906,-42.480,-114.746,-97.168,0.000
1757889884.917,181.641,-39.062,169.922,-84.473,0.000
1757889884.920,241.699,-63.965,-225.586,-33.203,0.000
1757889884.924,158.203,-64.941,-529.297,-39.062,0.000
1757889884.928,99.121,-41.504,-285.645,-76.172,0.000
1757889884.932,159.668,-28.320,157.715,-73.730,0.000
1757889884.936,110.352,-59.082,-103.516,-60.059,0.000
1757889884.940,123.047,-63.477,-495.117,-32.227,0.000
1757889884.944,118.652,-41.016,-235.840,-41.016,0.000
1757889884.948,72.754,-25.879,229.492,-82.520,0.000
1757889884.952,35.645,-54.688,43.457,-86.426,0.000
1757889884.956,99.121,-74.219,-422.363,-36.621,0.000
1757889884.960,96.680,-52.246,-309.082,-33.691,0.000
1757889884.963,45.410,-27.344,141.113,-60.547,0.000
1757889884.967,12.207,-44.922,119.141,-63.477,0.000
1757889884.971,-39.062,-72.266,-388.672,-48.828,0.000
1757889884.975,55.664,-54.688,-481.445,-15.625,0.000
1757889884.979,95.703,-29.297,-7.324,-25.391,0.000
1757889884.983,7.812,-30.762,181.152,-64.941,0.000
1757889884.987,-81.543,-57.129,-253.418,-90.820,0.000
1757889884.991,65.918,-61.523,-459.473,-44.434,0.000
1757889884.995,69.824,-42.480,-167.969,-52.246,0.000
1757889884.999,31.250,-34.180,204.590,-83.496,0.000
1757889885.002,-85.938,-63.477,-76.660,-89.844,0.000
1757889885.006,-80.566,-69.336,-449.707,-48.828,0.000
1757889885.010,84.473,-53.711,-284.668,10.254,0.000
1757889885.014,65.430,-48.340,52.734,-3.906,0.000
1757889885.018,-109.375,-49.316,-174.805,-96.191,0.000
1757889885.022,-120.117,-48.340,-458.984,-106.445,0.000
1757889885.026,93.262,-40.527,-347.656,-4.883,0.000
1757889885.030,76.660,-31.738,6.348,-13.184,0.000
1757889885.034,8.301,-40.527,179.199,-48.828,0.000
1757889885.038,-187.012,-59.570,-177.734,-92.285,0.000
1757889885.042,-75.684,-62.012,-345.215,-45.898,0.000
1757889885.045,109.375,-49.316,-17.090,-4.883,0.000
1757889885.049,31.738,-34.668,209.961,-45.898,0.000
1757889885.053,-217.773,-58.105,-143.555,-112.305,0.000
1757889885.057,-134.277,-77.637,-454.590,-56.641,0.000
1757889885.061,125.977,-52.734,-338.379,33.691,0.000
1757889885.065,83.496,-25.879,112.305,0.000,0.000
1757889885.069,-84.473,-49.316,-18.066,-40.039,0.000
1757889885.073,-201.660,-62.500,-472.168,-52.734,0.000
1757889885.077,68.359,-41.016,-358.398,20.020,0.000
1757889885.081,166.504,-21.973,129.883,-9.766,0.000
1757889885.085,-62.012,-37.598,83.008,-113.770,0.000
1757889885.088,-357.910,-53.711,-400.879,-172.363,0.000
1757889885.092,-95.215,-35.156,-451.660,-81.055,0.000
1757889885.096,160.156,-24.902,-0.488,-29.297,0.000
1757889885.100,-57.129,-49.805,116.211,-95.703,0.000
1757889885.104,-295.898,-67.871,-363.770,-124.023,0.000
1757889885.108,-246.582,-55.664,-535.156,-115.723,0.000
1757889885.112,98.145,-24.414,-223.633,-30.762,0.000
1757889885.116,101.562,-28.320,169.434,-20.508,0.000
1757889885.120,-240.723,-78.613,-228.027,-107.422,0.000
1757889885.124,-367.676,-77.637,-612.305,-138.672,0.000
1757889885.127,62.500,-43.945,-286.621,-8.301,0.000
1757889885.131,177.734,-33.203,161.133,20.996,0.000
1757889885.135,-112.305,-59.570,-45.898,-46.875,0.000
1757889885.139,-336.914,-74.219,-475.098,-92.285,0.000
1757889885.143,-114.746,-51.758,-337.891,-41.992,0.000
1757889885.147,202.637,-41.992,112.793,31.738,0.000
1757889885.151,18.066,-63.965,45.898,-15.137,0.000
1757889885.155,-339.844,-65.918,-421.387,-106.445,0.000
1757889885.159,-249.023,-43.945,-470.703,-105.469,0.000
1757889885.163,187.012,-38.574,-95.703,14.648,0.000
1757889885.167,112.793,-47.852,101.562,9.277,0.000
1757889885.170,-201.172,-53.223,-310.059,-73.242,0.000
1757889885.174,-324.707,-54.199,-469.238,-96.191,0.000
1757889885.178,30.762,-39.551,-196.289,4.395,0.000
1757889885.182,221.191,-24.414,158.203,53.223,0.000
1757889885.186,-85.449,-40.527,-37.598,-24.414,0.000
1757889885.190,-405.273,-59.082,-443.359,-126.465,0.000
1757889885.194,-144.531,-42.969,-317.383,-85.449,0.000
1757889885.198,274.414,-22.461,144.043,47.363,0.000
1757889885.202,-9.277,-36.133,-11.719,-8.301,0.000
1757889885.206,-310.059,-53.711,-427.246,-88.379,0.000
1757889885.210,-231.445,-49.805,-454.102,-78.613,0.000
1757889885.213,163.086,-24.902,-81.055,10.254,0.000
1757889885.217,172.852,-28.809,116.211,30.762,0.000
1757889885.221,-214.355,-49.805,-334.473,-51.270,0.000
1757889885.225,-387.207,-40.039,-482.910,-108.398,0.000
1757889885.229,62.012,-14.648,-38.086,5.371,0.000
1757889885.233,278.320,-20.508,266.602,72.266,0.000
1757889885.237,-161.621,-56.641,-187.500,-50.293,0.000
1757889885.241,-357.910,-55.176,-507.324,-123.047,0.000
1757889885.245,-121.094,-30.273,-184.570,-79.590,0.000
1757889885.249,217.773,-19.531,184.570,26.855,0.000
1757889885.253,21.484,-43.457,-152.344,-3.906,0.000
1757889885.256,-329.102,-53.223,-558.594,-101.562,0.000
1757889885.260,-285.645,-29.785,-325.684,-112.305,0.000
1757889885.264,192.383,-13.184,186.523,25.879,0.000
1757889885.268,150.879,-45.898,34.668,52.246,0.000
1757889885.272,-320.801,-73.242,-501.953,-84.961,0.000
1757889885.276,-319.824,-43.457,-431.152,-120.117,0.000
1757889885.280,32.227,-18.066,49.805,-25.391,0.000
1757889885.284,182.129,-33.203,177.734,39.062,0.000
1757889885.288,-136.230,-58.594,-306.152,-36.133,0.000
1757889885.292,-369.141,-61.523,-487.793,-110.352,0.000
1757889885.296,-188.477,-37.598,-131.836,-77.637,0.000
1757889885.299,238.281,-35.645,116.211,67.383,0.000
1757889885.303,58.105,-60.059,-288.574,40.039,0.000
1757889885.307,-310.059,-56.152,-496.582,-101.074,0.000
1757889885.311,-201.660,-47.363,-153.320,-92.285,0.000
1757889885.315,120.605,-32.715,251.465,2.930,0.000
1757889885.319,70.801,-40.527,39.551,-4.883,0.000
1757889885.323,-246.094,-59.082,-331.543,-86.426,0.000
1757889885.327,-319.824,-58.594,-250.488,-127.930,0.000
1757889885.331,-20.020,-41.992,139.160,-68.848,0.000
1757889885.335,235.352,-46.875,186.035,33.691,0.000
1757889885.338,-110.352,-71.289,-229.492,-27.344,0.000
1757889885.342,-352.539,-80.078,-414.062,-104.492,0.000
1757889885.346,-92.773,-62.012,-103.027,-49.805,0.000
1757889885.350,190.918,-49.316,141.113,52.734,0.000
1757889885.354,-1.953,-64.941,-193.848,36.133,0.000
1757889885.358,-280.762,-63.477,-471.191,-39.062,0.000
1757889885.362,-211.914,-38.574,-198.730,-50.781,0.000
1757889885.366,96.191,-24.902,210.449,17.090,0.000
1757889885.370,147.461,-49.316,8.789,71.777,0.000
1757889885.374,-224.609,-61.035,-349.609,-40.039,0.000
1757889885.378,-254.395,-40.039,-168.945,-96.191,0.000
1757889885.381,83.008,-24.902,246.582,-18.555,0.000
1757889885.385,143.555,-41.504,70.312,30.762,0.000
1757889885.389,-109.863,-62.012,-408.203,-7.812,0.000
1757889885.393,-241.699,-47.852,-422.852,-67.871,0.000
1757889885.397,-100.098,-18.066,73.242,-50.293,0.000
1757889885.401,117.676,-33.203,196.289,15.137,0.000
1757889885.405,32.715,-53.711,-245.117,14.160,0.000
1757889885.409,-247.559,-40.039,-285.645,-81.055,0.000
1757889885.413,-141.113,-16.113,177.734,-81.543,0.000
1757889885.417,102.539,-28.320,273.926,-7.812,0.000
1757889885.420,51.270,-66.895,-124.023,0.488,0.000
1757889885.424,-150.879,-57.617,-288.086,-40.039,0.000
1757889885.428,-169.434,-21.973,74.219,-68.359,0.000
1757889885.432,-26.855,-31.250,290.527,-25.391,0.000
1757889885.436,65.918,-61.523,-104.004,45.898,0.000
1757889885.440,-40.527,-51.270,-437.988,27.832,0.000
1757889885.444,-213.379,-29.785,-180.664,-57.617,0.000
1757889885.448,-75.684,-32.227,205.078,-59.570,0.000
1757889885.452,82.520,-51.758,27.832,0.977,0.000
1757889885.456,-31.738,-60.059,-380.859,4.395,0.000
1757889885.460,-150.391,-41.992,-301.758,-51.270,0.000
1757889885.463,-101.562,-19.043,108.887,-73.730,0.000
1757889885.467,-4.395,-36.133,143.555,-40.527,0.000
1757889885.471,55.664,-55.664,-242.188,23.438,0.000
1757889885.475,-75.195,-54.688,-446.289,-7.812,0.000
1757889885.479,-166.504,-41.016,-140.137,-82.031,0.000
1757889885.483,-34.668,-32.715,151.855,-48.828,0.000
1757889885.487,13.184,-47.363,-192.871,0.000,0.000
1757889885.491,-86.914,-49.316,-436.035,-15.625,0.000
1757889885.495,-99.609,-20.996,-11.719,-47.852,0.000
1757889885.499,-58.594,-1.465,333.008,-66.406,0.000
1757889885.503,-45.410,-22.949,195.801,-45.898,0.000
1757889885.506,-10.742,-38.574,100.586,-13.672,0.000
1757889885.510,-109.863,-31.738,189.453,-44.434,0.000
1757889885.514,-93.750,-10.254,321.777,-79.590,0.000
1757889885.518,-36.621,-25.391,257.812,-58.594,0.000
1757889885.522,-61.523,-58.594,39.062,-32.227,0.000
1757889885.526,-72.266,-52.246,50.293,-29.785,0.000
1757889885.530,-62.500,-23.926,265.137,-40.039,0.000
1757889885.534,-90.820,-25.879,277.832,-71.777,0.000
1757889885.538,-111.816,-58.105,-17.578,-41.504,0.000
1757889885.542,-49.805,-58.594,-278.320,-0.488,0.000
1757889885.545,-50.293,-24.414,64.941,-58.594,0.000
1757889885.549,-83.008,-27.832,315.918,-110.840,0.000
1757889885.553,-93.262,-51.758,-113.281,-79.590,0.000
1757889885.557,-58.594,-46.875,-356.445,-45.410,0.000
1757889885.561,-7.324,-34.668,32.715,-48.828,0.000
1757889885.565,-56.152,-38.086,320.801,-77.148,0.000
1757889885.569,-145.996,-60.547,0.977,-103.027,0.000
1757889885.573,-119.141,-66.406,-358.398,-60.547,0.000
1757889885.577,11.230,-47.852,-216.797,-0.488,0.000
1757889885.581,-22.949,-23.438,245.605,-31.250,0.000
1757889885.585,-142.578,-50.781,19.043,-74.219,0.000
1757889885.588,-119.629,-58.105,-458.008,-45.410,0.000
1757889885.592,-34.180,-29.785,-215.820,-14.648,0.000
1757889885.596,51.270,-18.066,196.777,-1.465,0.000
1757889885.600,-77.637,-29.785,223.633,-47.363,0.000
1757889885.604,-188.965,-56.641,-144.531,-89.844,0.000
1757889885.608,-69.336,-46.875,-268.555,-49.805,0.000
1757889885.612,75.195,-28.320,63.965,10.254,0.000
1757889885.616,-31.250,-29.297,262.695,-31.250,0.000
1757889885.620,-190.918,-51.270,-40.527,-95.215,0.000
1757889885.624,-141.113,-54.688,-348.145,-68.359,0.000
1757889885.628,15.137,-44.434,-174.316,-10.742,0.000
1757889885.631,72.266,-43.945,145.996,14.648,0.000
1757889885.635,-128.418,-49.316,37.109,-58.594,0.000
1757889885.639,-211.426,-47.363,-238.770,-113.770,0.000
1757889885.643,2.441,-24.414,-170.410,-44.434,0.000
1757889885.647,136.719,-6.836,159.180,-5.371,0.000
1757889885.651,-104.980,-19.531,186.523,-97.656,0.000
1757889885.655,-267.578,-44.434,-111.328,-125.488,0.000
1757889885.659,-122.559,-34.668,-220.215,-70.801,0.000
1757889885.663,77.148,-9.766,39.551,-37.109,0.000
1757889885.667,-42.969,-32.715,170.898,-77.637,0.000
1757889885.670,-301.758,-53.711,-198.730,-125.000,0.000
1757889885.674,-237.793,-42.969,-478.516,-88.867,0.000
1757889885.678,66.895,-16.113,-247.070,1.465,0.000
1757889885.682,95.703,1.465,207.031,0.977,0.000
1757889885.686,-213.379,-29.785,-1.465,-105.957,0.000
1757889885.690,-256.836,-42.480,-348.145,-115.234,0.000
1757889885.694,0.000,-28.809,-58.594,-26.367,0.000
1757889885.698,194.336,-16.113,312.500,24.414,0.000
1757889885.702,-88.867,-40.527,89.844,-55.664,0.000
1757889885.706,-317.871,-60.059,-310.059,-113.770,0.000
1757889885.710,-82.520,-32.715,-207.031,-56.152,0.000
1757889885.713,198.730,-19.531,185.059,25.879,0.000
1757889885.717,9.766,-51.270,92.285,-11.719,0.000
1757889885.721,-300.781,-70.312,-389.160,-107.422,0.000
1757889885.725,-184.082,-35.156,-410.156,-100.098,0.000
1757889885.729,121.094,-9.766,53.711,-9.766,0.000
1757889885.733,169.922,-28.320,211.914,27.344,0.000
1757889885.737,-212.891,-51.270,-187.012,-67.383,0.000
1757889885.741,-297.852,-39.551,-343.262,-88.379,0.000
1757889885.745,50.781,-25.391,4.395,-1.465,0.000
1757889885.749,238.281,-22.949,266.602,42.969,0.000
1757889885.753,-95.215,-39.551,-30.762,-49.316,0.000
1757889885.756,-329.590,-45.410,-392.090,-114.258,0.000
1757889885.760,-87.402,-33.691,-234.863,-57.129,0.000
1757889885.764,197.266,-29.785,63.477,8.789,0.000
1757889885.768,52.246,-42.480,-160.156,-21.484,0.000
1757889885.772,-316.895,-52.734,-419.434,-110.352,0.000
1757889885.776,-230.957,-38.574,-393.066,-82.520,0.000
1757889885.780,157.227,-21.973,-23.926,28.320,0.000
1757889885.784,191.895,-24.902,167.969,54.688,0.000
1757889885.788,-218.750,-38.574,-205.566,-68.848,0.000
1757889885.792,-303.223,-39.062,-390.137,-104.980,0.000
1757889885.795,46.387,-22.461,-70.801,-3.418,0.000
1757889885.799,245.117,-21.484,218.262,55.176,0.000
1757889885.803,-63.477,-34.180,-27.344,-36.133,0.000
1757889885.807,-358.398,-49.805,-395.996,-110.352,0.000
1757889885.811,-69.336,-36.133,-342.773,-26.855,0.000
1757889885.815,265.625,-3.906,132.324,54.688,0.000
1757889885.819,46.387,-21.973,46.875,6.348,0.000
1757889885.823,-283.203,-47.363,-418.457,-78.125,0.000
1757889885.827,-226.562,-38.086,-401.855,-105.957,0.000
1757889885.831,200.684,-11.719,77.637,-13.184,0.000
1757889885.835,181.641,-28.320,149.414,23.438,0.000
1757889885.838,-198.730,-53.223,-293.945,-57.129,0.000
1757889885.842,-297.852,-41.992,-357.910,-91.797,0.000
1757889885.846,-3.906,-24.414,72.754,-27.344,0.000
1757889885.850,264.648,-29.785,135.742,63.477,0.000
1757889885.854,-138.184,-60.059,-317.383,-27.344,0.000
1757889885.858,-288.086,-52.734,-467.773,-89.844,0.000
1757889885.862,-83.984,-14.648,-45.898,-41.504,0.000
1757889885.866,240.723,-13.672,231.934,59.570,0.000
1757889885.870,48.340,-51.758,-199.219,37.598,0.000
1757889885.874,-303.223,-45.898,-484.375,-81.055,0.000
1757889885.877,-187.012,-22.461,-175.293,-92.285,0.000
1757889885.881,102.051,-24.902,198.730,-22.461,0.000
1757889885.885,203.613,-40.039,-62.012,28.320,0.000
1757889885.889,-248.535,-46.875,-460.938,-85.938,0.000
1757889885.893,-254.883,-29.297,-252.441,-104.492,0.000
1757889885.897,53.223,-21.973,111.816,-16.113,0.000
1757889885.901,181.152,-49.805,-75.195,48.340,0.000
1757889885.905,-67.871,-57.129,-406.738,-0.977,0.000
1757889885.909,-319.336,-33.203,-351.562,-102.051,0.000
1757889885.913,-88.379,-29.785,-13.672,-56.152,0.000
1757889885.917,180.664,-44.434,22.949,26.855,0.000
1757889885.920,74.219,-43.457,-283.203,5.371,0.000
1757889885.924,-277.344,-36.621,-374.512,-87.891,0.000
1757889885.928,-183.594,-22.461,-150.391,-64.453,0.000
1757889885.932,135.254,-13.184,149.902,31.250,0.000
1757889885.936,117.188,-35.645,1.465,33.691,0.000
1757889885.940,-165.527,-55.176,-350.586,-48.340,0.000
1757889885.944,-260.254,-38.086,-304.199,-95.215,0.000
1757889885.948,50.293,-24.414,111.328,-29.297,0.000
1757889885.952,192.383,-33.691,27.344,22.949,0.000
1757889885.956,-86.426,-43.457,-354.492,-21.484,0.000
1757889885.960,-253.418,-41.504,-465.332,-85.938,0.000
1757889885.963,-88.379,-12.695,-138.184,-92.285,0.000
1757889885.967,179.688,-15.625,155.273,-0.488,0.000
1757889885.971,16.113,-45.898,-234.375,-3.418,0.000
1757889885.975,-219.727,-44.434,-427.246,-85.449,0.000
1757889885.979,-155.273,-17.090,-18.555,-99.609,0.000
1757889885.983,77.637,-11.719,250.488,-34.180,0.000
1757889885.987,116.699,-40.527,-142.090,28.809,0.000
1757889885.991,-198.242,-39.062,-404.297,-42.969,0.000
1757889885.995,-169.922,-20.996,-137.695,-70.801,0.000
1757889885.999,-17.090,-29.297,172.852,-31.250,0.000
1757889886.003,115.723,-50.781,-121.094,30.273,0.000
1757889886.006,-44.922,-47.852,-480.957,-20.020,0.000
1757889886.010,-203.613,-25.391,-224.121,-100.098,0.000
1757889886.014,-42.480,-3.906,225.586,-90.332,0.000
1757889886.018,44.922,-33.203,-8.301,-54.199,0.000
1757889886.022,36.621,-55.176,-515.137,-3.906,0.000
1757889886.026,-212.402,-26.855,-371.582,-66.406,0.000
1757889886.030,-58.594,-11.719,77.148,-39.551,0.000
1757889886.034,32.227,-22.949,131.348,-0.977,0.000
1757889886.038,34.180,-39.062,-278.809,32.227,0.000
1757889886.042,-90.332,-34.180,-400.391,-13.184,0.000
1757889886.046,-183.594,-19.531,-89.844,-85.449,0.000
1757889886.049,-3.418,-40.527,-27.344,-49.805,0.000
1757889886.053,-1.953,-60.059,-410.156,-50.293,0.000
1757889886.057,12.695,-29.785,-408.203,-38.574,0.000
1757889886.061,-165.039,-17.578,-122.559,-96.680,0.000
1757889886.065,-30.762,-20.508,168.457,-72.754,0.000
1757889886.069,34.668,-31.738,9.277,-32.715,0.000
1757889886.073,-19.043,-27.832,-270.020,-30.273,0.000
1757889886.077,-67.871,-21.484,-147.949,-47.852,0.000
1757889886.081,-105.469,-17.578,169.434,-95.703,0.000
1757889886.085,20.996,-28.809,151.855,-62.012,0.000
1757889886.088,-12.207,-42.969,-216.797,-20.996,0.000
1757889886.092,-55.664,-45.410,-354.492,-7.812,0.000
1757889886.096,-92.773,-30.273,-170.898,-38.086,0.000
1757889886.100,-37.598,-10.742,76.172,-53.711,0.000
1757889886.104,-21.484,-31.250,-91.797,-14.160,0.000
1757889886.108,-72.754,-44.922,-387.207,-3.418,0.000
1757889886.112,-42.480,-26.367,-97.656,-27.344,0.000
1757889886.116,-50.781,-11.230,270.996,-54.199,0.000
1757889886.120,-42.480,-33.203,3.906,-42.969,0.000
1757889886.124,1.465,-39.551,-283.691,-8.789,0.000
1757889886.128,-48.340,-25.879,-144.531,-27.832,0.000
1757889886.131,20.020,-7.324,214.355,-27.344,0.000
1757889886.135,-98.145,-21.484,51.270,-54.688,0.000
1757889886.139,-77.637,-51.758,-455.078,-26.367,0.000
1757889886.143,-5.859,-36.133,-399.902,-15.625,0.000
1757889886.147,8.789,-3.418,143.555,-39.551,0.000
1757889886.151,-51.270,-24.414,193.359,-44.922,0.000
1757889886.155,-123.047,-43.945,-245.605,-43.945,0.000
1757889886.159,54.199,-19.043,-244.141,22.461,0.000
1757889886.163,-20.996,-2.441,158.691,-15.137,0.000
1757889886.167,20.508,-23.438,196.289,-30.273,0.000
1757889886.171,-143.555,-46.387,-172.852,-74.707,0.000
1757889886.174,-20.020,-33.203,-239.746,-46.875,0.000
1757889886.178,96.191,-17.578,124.512,-37.598,0.000
1757889886.182,-29.297,-30.762,227.539,-77.637,0.000
1757889886.186,-112.793,-51.270,-220.703,-65.918,0.000
1757889886.190,-150.391,-27.344,-379.395,-60.547,0.000
1757889886.194,106.445,-6.836,-8.301,11.719,0.000
1757889886.198,15.137,-24.414,202.637,-17.090,0.000
1757889886.202,-39.062,-48.340,-114.258,-34.180,0.000
1757889886.206,-171.387,-38.574,-322.754,-58.594,0.000
1757889886.210,26.367,-27.832,-133.301,5.859,0.000
1757889886.213,138.672,-23.438,173.340,30.762,0.000
1757889886.217,-102.539,-36.133,168.457,-71.289,0.000
1757889886.221,-161.621,-52.734,-221.680,-77.637,0.000
1757889886.225,-115.234,-40.039,-345.703,-55.664,0.000
1757889886.229,159.668,-25.391,-59.082,8.301,0.000
1757889886.233,23.438,-24.902,133.301,-40.039,0.000
1757889886.237,-152.832,-42.480,-111.816,-82.520,0.000
1757889886.241,-152.344,-56.641,-294.922,-49.316,0.000
1757889886.245,88.379,-46.387,-204.102,44.434,0.000
1757889886.249,132.812,-6.348,84.473,39.551,0.000
1757889886.253,-187.500,-9.277,56.152,-94.727,0.000
1757889886.256,-202.148,-41.504,-305.664,-90.332,0.000
1757889886.260,2.930,-37.598,-260.254,-18.555,0.000
1757889886.264,186.035,-6.348,158.203,1.953,0.000
1757889886.268,0.000,-19.531,171.387,-58.594,0.000
1757889886.272,-257.324,-43.945,-214.355,-105.957,0.000
1757889886.276,-65.430,-28.809,-304.199,-32.715,0.000
1757889886.280,199.707,-11.719,49.316,35.156,0.000
1757889886.284,103.516,-17.578,169.434,9.766,0.000
1757889886.288,-240.234,-44.434,-299.805,-72.754,0.000
1757889886.292,-199.707,-40.527,-530.762,-87.402,0.000
1757889886.295,186.035,-2.930,-78.125,-4.883,0.000
1757889886.299,128.418,-3.906,254.395,-19.531,0.000
1757889886.303,-102.051,-33.691,-115.723,-71.777,0.000
1757889886.307,-309.082,-30.273,-375.488,-114.258,0.000
1757889886.311,76.660,-7.324,-31.738,4.395,0.000
1757889886.315,243.652,-14.648,247.070,72.754,0.000
1757889886.319,-62.500,-41.016,-31.250,-18.555,0.000
1757889886.323,-247.559,-45.898,-418.945,-75.684,0.000
1757889886.327,-122.559,-16.113,-287.598,-51.758,0.000
1757889886.331,273.926,-1.953,192.871,52.246,0.000
1757889886.335,-17.578,-37.109,-62.012,-7.812,0.000
1757889886.338,-206.055,-43.945,-498.535,-75.195,0.000
1757889886.342,-258.789,-17.090,-289.551,-123.047,0.000
1757889886.346,176.758,-11.230,95.703,12.207,0.000
1757889886.350,193.359,-17.578,180.176,52.246,0.000
1757889886.354,-230.469,-22.949,-169.922,-75.195,0.000
1757889886.358,-200.684,-23.438,-252.930,-63.965,0.000
1757889886.362,-12.207,-15.625,62.012,-8.301,0.000
1757889886.366,310.059,-16.113,233.887,103.027,0.000
1757889886.370,-101.562,-37.109,-54.688,-17.090,0.000
1757889886.374,-263.672,-41.992,-387.207,-98.145,0.000
1757889886.378,-121.582,-38.086,-290.039,-56.641,0.000
1757889886.381,230.957,-22.461,-48.340,43.457,0.000
1757889886.385,97.656,-14.160,-68.848,4.395,0.000
1757889886.389,-336.914,-31.738,-356.445,-132.324,0.000
1757889886.393,-131.348,-24.414,-381.348,-66.895,0.000
1757889886.397,140.625,-1.465,74.219,20.508,0.000
1757889886.401,240.723,-11.230,193.359,74.219,0.000
1757889886.405,-187.988,-35.645,-151.855,-42.480,0.000
1757889886.409,-278.809,-37.109,-326.172,-109.863,0.000
1757889886.413,71.289,-22.461,-13.184,-33.691,0.000
1757889886.417,229.492,-27.832,199.219,20.996,0.000
1757889886.421,-32.715,-49.316,-205.566,-21.484,0.000
1757889886.424,-371.094,-47.363,-514.160,-112.793,0.000
1757889886.428,-45.898,-20.020,-282.715,-29.785,0.000
1757889886.432,237.305,-3.418,193.359,51.270,0.000
1757889886.436,70.801,-39.062,7.324,23.438,0.000
1757889886.440,-247.559,-54.199,-365.723,-65.918,0.000
1757889886.444,-258.301,-33.203,-251.953,-106.445,0.000
1757889886.448,191.895,-10.742,181.641,13.184,0.000
1757889886.452,126.465,-26.367,70.312,21.484,0.000
1757889886.456,-188.477,-47.852,-393.555,-64.453,0.000
1757889886.460,-288.574,-29.297,-276.855,-112.793,0.000
1757889886.463,57.617,-18.066,150.879,-23.926,0.000
1757889886.467,205.566,-47.363,101.074,45.410,0.000
1757889886.471,-115.234,-63.965,-369.141,-32.715,0.000
1757889886.475,-264.160,-27.832,-399.414,-96.680,0.000
1757889886.479,-159.668,-3.418,60.547,-83.496,0.000
1757889886.483,269.043,-14.648,173.340,49.316,0.000
1757889886.487,20.020,-31.250,-241.699,7.324,0.000
1757889886.491,-242.676,-27.344,-366.699,-84.473,0.000
1757889886.495,-157.715,-17.090,-30.762,-78.125,0.000
1757889886.499,99.121,-17.090,231.934,4.883,0.000
1757889886.503,150.879,-41.016,-116.211,46.875,0.000
1757889886.506,-228.516,-38.086,-433.594,-63.965,0.000
1757889886.510,-227.539,-21.484,-262.207,-102.539,0.000
1757889886.514,-58.594,-30.762,-110.352,-68.848,0.000
1757889886.518,193.848,-34.180,-294.922,38.574,0.000
1757889886.522,-98.145,-31.738,-399.902,-14.648,0.000
1757889886.526,-312.012,-33.203,-299.805,-88.867,0.000
1757889886.530,-51.270,-23.926,29.297,-38.574,0.000
1757889886.534,131.348,-23.438,170.898,-38.574,0.000
1757889886.538,97.656,-34.668,-151.367,-38.086,0.000
1757889886.542,-240.723,-41.016,-308.105,-111.328,0.000
1757889886.546,-142.578,-26.367,-46.875,-117.676,0.000
1757889886.549,86.426,-14.648,221.191,-49.316,0.000
1757889886.553,90.332,-43.457,-36.621,-7.324,0.000
1757889886.557,-165.039,-62.012,-426.270,-47.363,0.000
1757889886.561,-272.949,-45.898,-349.121,-103.516,0.000
1757889886.565,75.195,-21.973,100.098,-22.949,0.000
1757889886.569,84.961,-31.250,66.406,15.625,0.000
1757889886.573,-49.805,-57.129,-380.859,-1.953,0.000
1757889886.577,-213.867,-49.316,-359.863,-80.078,0.000
1757889886.581,-50.781,-18.555,140.137,-61.523,0.000
1757889886.585,168.945,-26.367,160.156,19.043,0.000
1757889886.589,-17.090,-55.176,-322.266,-1.465,0.000
1757889886.592,-137.695,-42.969,-427.246,-35.645,0.000
1757889886.596,-154.785,-19.043,30.273,-66.895,0.000
1757889886.600,100.586,-34.668,127.441,-1.953,0.000
1757889886.604,9.766,-62.500,-308.594,-13.672,0.000
1757889886.608,-102.539,-52.734,-468.750,-44.922,0.000
1757889886.612,-118.652,-28.320,-197.266,-74.219,0.000
1757889886.616,-26.855,-26.855,131.348,-69.336,0.000
1757889886.620,131.836,-55.176,-219.238,15.137,0.000
1757889886.624,-118.164,-45.898,-537.598,-30.273,0.000
1757889886.628,-81.055,-8.789,-201.660,-37.109,0.000
1757889886.632,-78.125,-20.508,151.855,-64.453,0.000
1757889886.635,62.500,-44.434,-20.508,-15.625,0.000
1757889886.639,-0.488,-47.852,-337.402,-8.301,0.000
1757889886.643,-108.887,-36.621,-201.172,-61.035,0.000
1757889886.647,-50.781,-25.391,129.395,-77.637,0.000
1757889886.651,-69.824,-36.133,28.320,-88.379,0.000
1757889886.655,78.613,-45.898,-369.629,0.977,0.000
1757889886.659,-142.090,-24.414,-323.730,-57.129,0.000
1757889886.663,-64.453,-19.043,-10.742,-50.293,0.000
1757889886.667,-49.316,-34.668,-142.578,-41.016,0.000
1757889886.671,-10.742,-30.273,-407.227,-21.484,0.000
1757889886.674,10.254,-24.902,-360.352,3.906,0.000
1757889886.678,-107.910,-20.020,-155.273,-59.082,0.000
1757889886.682,-19.043,-13.184,128.906,-58.105,0.000
1757889886.686,-93.262,-33.691,-8.301,-63.477,0.000
1757889886.690,36.133,-52.246,-346.191,0.000,0.000
1757889886.694,-96.191,-38.086,-277.832,-50.293,0.000
1757889886.698,-42.969,-25.391,101.562,-59.570,0.000
1757889886.702,-28.320,-34.180,-18.555,-24.414,0.000
1757889886.706,-120.605,-34.668,-365.234,-39.062,0.000
1757889886.710,16.113,-34.668,-382.812,-11.719,0.000
1757889886.714,-78.125,-23.438,-31.738,-84.961,0.000
1757889886.717,-37.598,-27.832,172.363,-88.867,0.000
1757889886.721,-82.520,-52.734,-169.434,-53.711,0.000
1757889886.725,-30.762,-50.781,-456.543,-13.672,0.000
1757889886.729,4.395,-17.578,-197.266,-31.738,0.000
1757889886.733,-59.082,-16.113,194.336,-77.148,0.000
1757889886.737,-80.566,-46.387,-112.305,-62.012,0.000
1757889886.741,-113.281,-49.805,-429.688,-57.617,0.000
1757889886.745,78.125,-33.203,-196.777,-19.043,0.000
1757889886.749,-11.230,-23.926,120.605,-68.359,0.000
1757889886.753,-125.488,-52.246,-193.359,-91.797,0.000
1757889886.756,-62.012,-61.523,-565.430,-26.367,0.000
1757889886.760,-7.324,-21.484,-311.523,-6.836,0.000
1757889886.764,83.008,-7.812,148.926,-8.789,0.000
1757889886.768,-118.652,-30.762,19.531,-83.008,0.000
1757889886.772,-105.957,-40.039,-394.043,-67.383,0.000
1757889886.776,-32.227,-25.391,-308.594,-38.086,0.000
1757889886.780,129.395,-12.695,67.383,2.441,0.000
1757889886.784,-44.922,-28.809,40.039,-45.410,0.000
1757889886.788,-222.656,-45.410,-354.980,-86.426,0.000
1757889886.792,-25.391,-39.551,-438.477,-5.371,0.000
1757889886.796,21.973,-24.902,-173.340,-17.578,0.000
1757889886.799,71.777,-36.133,-95.703,-23.438,0.000
1757889886.803,-210.938,-51.758,-412.598,-107.910,0.000
1757889886.807,-109.375,-23.438,-410.645,-79.590,0.000
1757889886.811,63.965,-8.789,-139.160,-7.324,0.000
1757889886.815,107.422,-14.648,166.016,-4.395,0.000
1757889886.819,-119.629,-31.738,-14.160,-77.637,0.000
1757889886.823,-249.023,-38.574,-298.340,-108.887,0.000
1757889886.827,65.430,-29.297,-237.305,9.277,0.000
1757889886.831,73.730,-15.137,88.379,-9.277,0.000
1757889886.835,-17.578,-25.391,21.973,-50.781,0.000
1757889886.839,-268.555,-50.293,-394.043,-102.051,0.000
1757889886.842,-136.719,-49.316,-449.707,-40.527,0.000
1757889886.846,141.113,-29.297,-276.855,42.969,0.000
1757889886.850,30.762,-12.207,18.066,-28.809,0.000
1757889886.854,-205.566,-35.645,-175.293,-113.770,0.000
1757889886.858,-235.840,-44.922,-442.383,-113.770,0.000
1757889886.862,128.418,-25.879,-186.523,-7.324,0.000
1757889886.866,116.699,-15.137,175.781,-27.344,0.000
1757889886.870,-151.855,-40.527,-71.777,-93.262,0.000
1757889886.874,-230.957,-51.270,-397.949,-97.168,0.000
1757889886.878,-44.434,-36.621,-284.180,-54.199,0.000
1757889886.882,230.469,-25.391,75.684,23.438,0.000
1757889886.885,-126.953,-41.992,-61.035,-66.406,0.000
1757889886.889,-309.082,-55.664,-478.027,-117.676,0.000
1757889886.893,-118.652,-34.180,-378.418,-66.895,0.000
1757889886.897,183.594,-7.812,58.105,20.508,0.000
1757889886.901,55.176,-27.344,159.180,-12.207,0.000
1757889886.905,-319.824,-63.477,-361.328,-112.793,0.000
1757889886.909,-187.500,-39.551,-507.812,-77.148,0.000
1757889886.913,58.594,-5.371,-8.789,-20.020,0.000
1757889886.917,217.773,-14.160,172.852,33.691,0.000
1757889886.921,-246.582,-40.527,-247.559,-84.961,0.000
1757889886.924,-309.570,-38.574,-454.590,-119.629,0.000
1757889886.928,36.133,-18.555,-125.977,-50.293,0.000
1757889886.932,184.570,-27.344,152.832,-2.930,0.000
1757889886.936,-65.430,-43.945,-271.973,-41.016,0.000
1757889886.940,-364.258,-30.762,-479.004,-130.859,0.000
1757889886.944,-79.590,-15.625,-188.477,-54.688,0.000
1757889886.948,148.438,-14.648,94.238,17.090,0.000
1757889886.952,128.418,-26.367,-93.750,21.484,0.000
1757889886.956,-319.824,-30.762,-385.254,-114.258,0.000
1757889886.960,-238.770,-28.809,-292.480,-125.977,0.000
1757889886.964,166.504,-20.020,63.477,-9.277,0.000
1757889886.967,123.535,-18.066,144.531,-11.719,0.000
1757889886.971,-185.547,-40.039,-241.699,-87.402,0.000
1757889886.975,-366.699,-37.598,-449.219,-162.598,0.000
1757889886.979,45.898,-21.484,-216.797,-51.758,0.000
1757889886.983,213.379,-14.160,60.059,18.555,0.000
1757889886.987,-22.461,-16.602,-125.000,-43.945,0.000
1757889886.991,-355.957,-32.227,-331.543,-135.254,0.000
1757889886.995,-155.762,-30.762,-286.621,-91.797,0.000
1757889886.999,257.812,-9.766,35.156,32.715,0.000
1757889887.003,-15.625,-34.668,-33.203,-31.738,0.000
1757889887.007,-264.648,-58.594,-477.051,-107.422,0.000
1757889887.010,-257.812,-26.855,-341.309,-124.512,0.000
1757889887.014,141.602,-2.441,134.277,-27.344,0.000
1757889887.018,186.523,-18.066,174.805,2.930,0.000
1757889887.022,-231.445,-39.551,-262.695,-92.773,0.000
1757889887.026,-331.543,-35.645,-428.711,-121.094,0.000
1757889887.030,-7.324,-14.160,-36.621,-51.270,0.000
1757889887.034,277.832,-9.277,206.055,43.457,0.000
1757889887.038,-135.254,-43.945,-231.445,-39.551,0.000
1757889887.042,-287.109,-51.270,-537.109,-107.910,0.000
1757889887.046,-81.543,-13.672,-103.027,-96.191,0.000
1757889887.049,148.926,-8.301,248.535,-13.672,0.000
1757889887.053,108.398,-39.551,-106.445,28.809,0.000
1757889887.057,-320.801,-50.781,-446.777,-104.004,0.000
1757889887.061,-211.426,-22.949,-211.426,-101.562,0.000
1757889887.065,107.910,-13.184,169.434,-13.672,0.000
1757889887.069,175.293,-31.250,-66.406,12.695,0.000
1757889887.073,-235.840,-41.992,-458.496,-96.191,0.000
1757889887.077,-280.762,-28.809,-386.230,-125.977,0.000
1757889887.081,61.523,-2.441,79.102,-30.273,0.000
1757889887.085,122.070,-28.320,-71.289,6.348,0.000
1757889887.089,-9.277,-45.410,-541.504,-17.578,0.000
1757889887.092,-347.656,-29.297,-337.402,-143.066,0.000
1757889887.096,-70.801,-15.625,33.203,-81.055,0.000
1757889887.100,178.223,-16.113,172.852,10.742,0.000
1757889887.104,69.824,-29.297,-154.297,0.488,0.000
1757889887.108,-231.445,-27.344,-322.754,-85.449,0.000
1757889887.112,-199.219,-26.855,-53.223,-106.934,0.000
1757889887.116,147.461,-27.832,178.223,-14.648,0.000
1757889887.120,74.707,-35.156,-92.285,1.465,0.000
1757889887.124,-103.516,-39.551,-415.039,-21.973,0.000
1757889887.128,-288.086,-32.227,-269.531,-103.516,0.000
1757889887.132,23.438,-24.414,-102.539,-31.250,0.000
1757889887.135,170.898,-19.531,-191.406,25.879,0.000
1757889887.139,-78.125,-31.250,-340.332,-28.809,0.000
1757889887.143,-203.125,-22.949,-308.594,-78.613,0.000
1757889887.147,-97.168,-6.348,41.992,-79.590,0.000
1757889887.151,172.363,-17.578,159.668,17.578,0.000
1757889887.155,21.484,-40.527,-158.203,6.836,0.000
1757889887.159,-172.852,-35.645,-353.516,-61.035,0.000
1757889887.163,-151.367,-10.254,-51.270,-95.703,0.000
1757889887.167,68.359,-24.414,186.035,-50.293,0.000
1757889887.171,131.348,-48.340,-218.262,1.953,0.000
1757889887.174,-194.336,-53.223,-525.391,-60.547,0.000
1757889887.178,-131.348,-28.320,-329.102,-58.105,0.000
1757889887.182,21.973,0.000,166.504,-41.504,0.000
1757889887.186,80.566,-27.832,-10.254,-1.465,0.000
1757889887.190,-12.695,-38.086,-418.457,3.906,0.000
1757889887.194,-167.480,-13.672,-244.141,-76.172,0.000
1757889887.198,-20.508,-6.836,195.801,-67.383,0.000
1757889887.202,48.340,-40.039,62.500,-23.438,0.000
1757889887.206,64.941,-52.246,-380.371,18.066,0.000
1757889887.210,-191.406,-33.203,-305.664,-71.777,0.000
1757889887.214,-83.984,-20.508,91.797,-85.938,0.000
1757889887.217,51.758,-37.109,67.383,-29.785,0.000
1757889887.221,-37.598,-56.152,-367.188,-21.484,0.000
1757889887.225,-22.949,-29.785,-456.543,-16.602,0.000
1757889887.229,-162.598,-10.742,-55.176,-83.496,0.000
1757889887.233,-1.465,-22.949,146.484,-48.340,0.000
1757889887.237,-9.277,-44.922,-244.141,-20.996,0.000
1757889887.241,8.301,-35.156,-383.301,6.836,0.000
1757889887.245,-120.605,-18.555,-57.617,-45.410,0.000
1757889887.249,-24.414,-18.555,223.633,-59.570,0.000
1757889887.253,64.453,-39.551,-76.172,-26.367,0.000
1757889887.257,-64.941,-41.016,-391.113,-49.805,0.000
1757889887.260,0.977,-26.855,-258.789,-20.020,0.000
1757889887.264,-139.648,-34.180,-76.172,-75.684,0.000
1757889887.268,-16.602,-41.016,-238.281,-39.551,0.000
1757889887.272,-54.199,-34.668,-384.277,-18.555,0.000
1757889887.276,-22.461,-26.855,-272.461,-11.230,0.000
1757889887.280,-68.848,-22.461,39.062,-53.711,0.000
1757889887.284,-56.641,-27.832,148.926,-71.289,0.000
1757889887.288,-8.789,-43.457,-170.410,-33.203,0.000
1757889887.292,-67.871,-42.480,-306.152,-26.367,0.000
1757889887.296,48.828,-21.973,-23.926,2.930,0.000
1757889887.299,-62.012,-16.113,223.145,-71.777,0.000
1757889887.303,-45.898,-27.344,-4.395,-63.477,0.000
1757889887.307,-60.547,-42.969,-313.965,-16.113,0.000
1757889887.311,-35.645,-29.785,-315.918,-18.555,0.000
1757889887.315,-5.371,-5.859,95.215,-51.758,0.000
1757889887.319,-101.074,-29.297,99.121,-80.566,0.000
1757889887.323,-87.891,-48.828,-336.426,-37.598,0.000
1757889887.327,-35.645,-34.668,-300.293,-22.461,0.000
1757889887.331,30.762,-13.672,170.410,-37.598,0.000
1757889887.335,-96.680,-32.715,178.711,-73.730,0.000
1757889887.339,-151.367,-55.176,-289.062,-54.688,0.000
1757889887.342,-0.488,-39.551,-347.168,16.113,0.000
1757889887.346,1.953,-20.020,62.012,-12.207,0.000
1757889887.350,-35.645,-30.273,135.254,-69.336,0.000
1757889887.354,-140.137,-55.664,-295.898,-102.539,0.000
1757889887.358,-84.473,-47.852,-460.938,-74.707,0.000
1757889887.362,90.332,-22.461,-22.949,-22.949,0.000
1757889887.366,11.230,-18.555,236.816,-52.246,0.000
1757889887.370,-157.715,-41.016,-195.801,-77.148,0.000
1757889887.374,-168.945,-37.598,-447.266,-59.570,0.000
1757889887.378,102.539,-14.648,-110.352,20.508,0.000
1757889887.382,12.695,-15.137,223.633,-9.766,0.000
1757889887.385,-110.352,-38.086,-77.148,-67.383,0.000
1757889887.389,-155.273,-33.691,-408.691,-86.914,0.000
1757889887.393,-45.898,-17.578,-281.738,-54.199,0.000
1757889887.397,164.551,-14.648,48.828,24.414,0.000
1757889887.401,-101.562,-35.645,-21.484,-50.781,0.000
1757889887.405,-188.965,-39.062,-422.363,-74.219,0.000
1757889887.409,-97.656,-13.184,-335.938,-35.645,0.000
1757889887.413,178.223,-14.648,14.648,36.133,0.000
1757889887.417,3.418,-33.691,20.020,-41.016,0.000
1757889887.421,-166.504,-28.809,-290.039,-103.027,0.000
1757889887.424,-110.840,-20.020,-333.008,-48.828,0.000
1757889887.428,44.922,-9.766,-100.098,-3.418,0.000
1757889887.432,205.566,-3.906,151.855,28.809,0.000
1757889887.436,-178.223,-28.809,8.789,-86.914,0.000
1757889887.440,-232.910,-50.781,-327.148,-102.539,0.000
1757889887.444,8.789,-38.086,-237.305,-30.273,0.000
1757889887.448,207.031,-20.020,154.785,24.902,0.000
1757889887.452,-67.871,-40.039,-4.395,-44.434,0.000
1757889887.456,-236.816,-56.152,-394.043,-92.285,0.000
1757889887.460,-114.746,-49.316,-483.887,-51.270,0.000
1757889887.464,146.484,-25.879,-152.344,10.254,0.000
1757889887.467,92.285,-21.484,164.551,-4.883,0.000
1757889887.471,-281.738,-45.410,-199.707,-107.422,0.000
1757889887.475,-181.152,-41.016,-382.324,-86.914,0.000
1757889887.479,121.094,-15.625,13.184,4.395,0.000
1757889887.483,192.871,-8.789,248.047,33.691,0.000
1757889887.487,-171.875,-31.250,-130.371,-69.824,0.000
1757889887.491,-238.281,-37.109,-382.812,-99.121,0.000
1757889887.495,11.719,-23.438,-173.340,-15.625,0.000
1757889887.499,202.637,-9.766,175.781,29.785,0.000
1757889887.503,-25.391,-42.969,-60.547,-32.227,0.000
1757889887.507,-323.242,-61.035,-525.879,-112.793,0.000
1757889887.510,-91.797,-19.531,-302.734,-65.918,0.000
1757889887.514,224.609,3.418,186.035,35.645,0.000
1757889887.518,71.289,-18.555,33.691,16.113,0.000
1757889887.522,-274.414,-37.109,-414.551,-89.355,0.000
1757889887.526,-185.547,-19.531,-294.434,-89.844,0.000
1757889887.530,136.230,-6.348,142.578,0.000,0.000
1757889887.534,192.871,-26.367,168.457,39.551,0.000
1757889887.538,-148.926,-42.480,-275.391,-42.969,0.000
1757889887.542,-328.613,-28.809,-421.875,-92.285,0.000
1757889887.546,46.387,-18.066,-156.250,4.395,0.000
1757889887.550,266.113,-12.695,89.355,63.477,0.000
1757889887.553,-65.430,-28.320,-156.250,-20.020,0.000
1757889887.557,-258.789,-35.156,-399.414,-83.984,0.000
1757889887.561,-134.766,-26.367,-178.711,-66.406,0.000
1757889887.565,212.402,-34.668,-0.488,26.855,0.000
1757889887.569,89.844,-40.039,-250.000,-4.395,0.000
1757889887.573,-296.387,-32.715,-407.715,-121.094,0.000
1757889887.577,-237.305,-26.855,-300.781,-110.352,0.000
1757889887.581,132.812,-12.695,54.199,-11.719,0.000
1757889887.585,228.516,-22.461,151.367,31.738,0.000
1757889887.589,-226.562,-47.363,-268.555,-86.914,0.000
1757889887.592,-304.688,-49.316,-470.215,-122.559,0.000
1757889887.596,44.434,-30.273,-314.453,-14.648,0.000
1757889887.600,230.957,-8.789,-22.949,47.363,0.000
1757889887.604,-42.480,-25.391,-152.344,-14.648,0.000
1757889887.608,-301.270,-37.598,-438.965,-100.098,0.000
1757889887.612,-145.508,-20.996,-174.316,-84.961,0.000
1757889887.616,242.676,-19.531,179.199,23.438,0.000
1757889887.620,94.727,-43.945,-180.664,13.672,0.000
1757889887.624,-346.191,-49.805,-508.789,-119.629,0.000
1757889887.628,-156.250,-33.691,-293.457,-74.707,0.000
1757889887.632,115.234,-15.137,113.281,8.301,0.000
1757889887.635,139.160,-32.227,0.488,16.113,0.000
1757889887.639,-154.785,-59.082,-499.512,-54.199,0.000
1757889887.643,-359.375,-36.621,-497.070,-138.672,0.000
1757889887.647,41.992,-5.859,37.598,-29.297,0.000
1757889887.651,216.797,-28.809,159.180,50.293,0.000
1757889887.655,-93.750,-46.875,-326.660,-37.109,0.000
1757889887.659,-273.926,-29.785,-426.758,-101.074,0.000
1757889887.663,-84.473,-12.207,21.484,-61.035,0.000
1757889887.667,179.199,-24.414,165.039,25.879,0.000
1757889887.671,16.602,-49.805,-291.992,19.043,0.000
1757889887.674,-272.461,-39.062,-490.234,-74.707,0.000
1757889887.678,-176.758,-17.090,-165.527,-97.656,0.000
1757889887.682,115.234,-23.926,127.441,-3.906,0.000
1757889887.686,141.113,-49.316,-264.648,34.668,0.000
1757889887.690,-143.066,-41.992,-516.602,-46.387,0.000
1757889887.694,-293.457,-18.555,-233.398,-105.957,0.000
1757889887.698,53.711,-18.555,102.051,-17.578,0.000
1757889887.702,171.875,-35.156,-48.340,33.203,0.000
1757889887.706,-98.145,-37.109,-348.633,-42.969,0.000
1757889887.710,-216.309,-29.297,-309.082,-87.402,0.000
1757889887.714,-133.789,-14.160,34.668,-83.008,0.000
1757889887.717,175.781,-16.113,167.480,14.160,0.000
1757889887.721,68.848,-44.434,-215.820,23.926,0.000
1757889887.725,-275.879,-44.922,-437.988,-85.938,0.000
1757889887.729,-119.629,-24.902,-210.449,-83.008,0.000
1757889887.733,116.211,-27.832,50.781,-27.832,0.000
1757889887.737,50.293,-41.504,-201.172,-22.949,0.000
1757889887.741,-104.004,-37.598,-428.223,-40.527,0.000
1757889887.745,-193.848,-28.809,-381.836,-74.219,0.000
1757889887.749,35.645,-11.230,-50.781,-29.785,0.000
1757889887.753,86.426,-13.672,6.348,-3.906,0.000
1757889887.757,-179.688,-33.691,-411.133,-81.543,0.000
1757889887.760,-124.512,-29.785,-364.258,-77.637,0.000
1757889887.764,72.266,-12.207,105.957,-20.996,0.000
1757889887.768,60.059,-30.273,51.758,-11.719,0.000
1757889887.772,-125.977,-52.734,-392.090,-51.758,0.000
1757889887.776,-190.430,-42.969,-478.516,-72.266,0.000
1757889887.780,18.555,-12.695,-132.812,-43.457,0.000
1757889887.784,87.891,-12.207,134.766,-25.879,0.000
1757889887.788,-104.004,-42.969,-290.527,-40.527,0.000
1757889887.792,-130.371,-36.133,-564.941,-34.668,0.000
1757889887.796,-59.082,3.418,-184.570,-60.547,0.000
1757889887.799,145.996,3.418,186.523,-26.855,0.000
1757889887.803,1.953,-26.855,-147.461,-38.574,0.000
1757889887.807,-207.031,-29.785,-460.938,-89.355,0.000
1757889887.811,-4.883,-11.230,-160.156,-36.133,0.000
1757889887.815,48.828,-13.184,181.152,-25.391,0.000
1757889887.819,9.766,-40.039,-68.848,-20.020,0.000
1757889887.823,-111.328,-46.875,-441.406,-47.852,0.000
1757889887.827,-166.992,-25.391,-374.023,-80.078,0.000
1757889887.831,68.848,-9.277,93.750,-16.113,0.000
1757889887.835,87.402,-40.527,-58.105,-1.953,0.000
1757889887.839,-182.129,-54.199,-541.992,-75.684,0.000
1757889887.842,-118.652,-34.180,-412.598,-73.730,0.000
1757889887.846,10.742,-21.973,-23.438,-50.781,0.000
1757889887.850,63.477,-27.344,177.246,-36.621,0.000
1757889887.854,-5.859,-41.504,-187.012,-46.387,0.000
1757889887.858,-202.637,-35.156,-363.281,-95.703,0.000
1757889887.862,-25.391,-25.879,-47.852,-52.734,0.000
1757889887.866,105.469,-20.020,220.703,-15.137,0.000
1757889887.870,-22.949,-36.621,-111.328,-42.480,0.000
1757889887.874,-142.090,-41.016,-454.102,-69.336,0.000
1757889887.878,-137.695,-31.250,-281.738,-69.824,0.000
1757889887.882,109.863,-25.391,-84.961,-3.418,0.000
1757889887.885,46.875,-27.344,-171.387,-8.301,0.000
1757889887.889,-167.480,-41.016,-375.977,-51.270,0.000
1757889887.893,-103.516,-34.668,-358.398,-39.551,0.000
1757889887.897,9.277,-20.508,-13.184,-44.922,0.000
1757889887.901,93.262,-17.090,137.207,-35.645,0.000
1757889887.905,-55.176,-33.691,-200.195,-63.477,0.000
1757889887.909,-198.242,-34.668,-412.598,-100.586,0.000
1757889887.913,47.363,-16.113,-74.707,-28.320,0.000
1757889887.917,104.492,-19.043,179.688,-5.859,0.000
1757889887.921,-89.355,-42.480,-236.816,-41.016,0.000
1757889887.924,-123.047,-52.246,-545.898,-34.668,0.000
1757889887.928,-95.703,-30.273,-339.355,-58.594,0.000
1757889887.932,117.676,-11.230,145.020,-21.973,0.000
1757889887.936,63.477,-35.156,4.395,-2.441,0.000
1757889887.940,-210.938,-48.828,-400.391,-64.941,0.000
1757889887.944,-44.434,-28.809,-261.719,-30.273,0.000
1757889887.948,92.285,-7.812,182.617,-9.766,0.000
1757889887.952,20.020,-32.227,67.871,-23.438,0.000
1757889887.956,-71.289,-50.781,-391.113,-30.762,0.000
1757889887.960,-152.344,-33.203,-328.613,-64.941,0.000
1757889887.964,58.594,-24.902,80.078,-30.273,0.000
1757889887.967,97.168,-40.527,107.422,-13.672,0.000
1757889887.971,-116.211,-57.129,-376.953,-44.922,0.000
1757889887.975,-134.277,-37.109,-473.145,-56.641,0.000
1757889887.979,-38.086,-15.625,-58.594,-42.480,0.000
1757889887.983,125.000,-17.090,149.414,-0.977,0.000
1757889887.987,-17.090,-40.039,-227.539,-35.156,0.000
1757889887.991,-194.336,-36.621,-434.082,-89.355,0.000
1757889887.995,-2.930,-14.648,-132.324,-31.738,0.000
1757889887.999,68.359,-18.066,196.289,-15.625,0.000
1757889888.003,7.324,-41.016,-64.453,-18.555,0.000
1757889888.007,-111.816,-43.945,-445.312,-22.461,0.000
1757889888.010,-161.133,-25.391,-336.914,-58.105,0.000
1757889888.014,104.004,-20.508,-92.285,-9.766,0.000
1757889888.018,70.801,-34.668,-193.359,-53.223,0.000
1757889888.022,-162.598,-40.527,-390.625,-129.883,0.000
1757889888.026,-92.773,-35.156,-353.027,-86.914,0.000
1757889888.030,-21.973,-20.996,-65.918,-73.730,0.000
1757889888.034,64.941,-20.508,127.441,-49.805,0.000
1757889888.038,-2.930,-39.551,-156.738,-43.945,0.000
1757889888.042,-217.285,-49.316,-357.910,-97.656,0.000
1757889888.046,1.953,-29.785,-118.652,-43.945,0.000
1757889888.049,124.512,-16.602,177.246,-6.348,0.000
1757889888.053,-28.320,-32.715,-9.766,-32.715,0.000
1757889888.057,-128.906,-51.270,-387.207,-43.457,0.000
1757889888.061,-140.137,-40.527,-359.863,-57.617,0.000
1757889888.065,116.699,-7.324,72.266,-5.371,0.000
1757889888.069,48.828,-23.438,11.719,-23.438,0.000
1757889888.073,-189.453,-54.199,-421.875,-80.078,0.000
1757889888.077,-81.055,-46.875,-453.125,-50.293,0.000
1757889888.081,62.988,-22.461,35.645,-20.020,0.000
1757889888.085,89.355,-28.320,187.988,0.000,0.000
1757889888.089,-72.754,-35.156,-279.297,-30.762,0.000
1757889888.092,-221.191,-24.414,-397.949,-87.891,0.000
1757889888.096,53.223,-11.719,35.645,-37.598,0.000
1757889888.100,80.078,-14.648,147.461,-33.691,0.000
1757889888.104,-96.680,-37.598,-312.500,-64.941,0.000
1757889888.108,-97.656,-34.668,-506.348,-43.945,0.000
1757889888.112,-120.605,-13.672,-160.156,-76.172,0.000
1757889888.116,112.305,-20.508,191.406,-24.414,0.000
1757889888.120,14.160,-55.176,-170.410,-8.301,0.000
1757889888.124,-240.234,-57.129,-536.621,-83.008,0.000
1757889888.128,-44.434,-25.879,-225.098,-49.316,0.000
1757889888.132,81.055,-14.648,180.664,-10.254,0.000
1757889888.135,21.484,-41.504,-6.348,-13.184,0.000
1757889888.139,-87.402,-55.176,-395.996,-20.508,0.000
1757889888.143,-176.270,-34.180,-319.336,-59.082,0.000
1757889888.147,79.590,-20.020,74.707,-3.418,0.000
1757889888.151,93.262,-42.480,55.176,-1.465,0.000
1757889888.155,-154.785,-64.941,-386.719,-77.637,0.000
1757889888.159,-102.051,-40.527,-412.598,-56.641,0.000
1757889888.163,-50.293,-30.762,-20.996,-42.480,0.000
1757889888.167,76.172,-39.551,38.574,-6.836,0.000
1757889888.171,-28.809,-40.527,-322.754,-23.438,0.000
1757889888.174,-197.266,-47.363,-438.965,-68.359,0.000
1757889888.178,-8.301,-30.273,-236.816,-26.367,0.000
1757889888.182,52.734,-16.602,141.113,-33.691,0.000
1757889888.186,19.043,-38.086,-5.371,-42.480,0.000
1757889888.190,-101.562,-53.223,-411.133,-38.574,0.000
