timestamps,TP9,AF7,AF8,TP10,Right AUX
1757890406.867,33.691,-36.621,76.660,-13.672,0.000
1757890406.871,-64.941,-37.598,-104.492,-28.320,0.000
1757890406.875,-94.727,-39.062,-226.562,-40.039,0.000
1757890406.879,6.836,-23.926,-31.738,-20.508,0.000
1757890406.883,57.129,-22.461,45.898,-6.348,0.000
1757890406.887,-48.340,-43.945,-238.281,-24.414,0.000
1757890406.891,-97.656,-46.387,-399.902,-24.902,0.000
1757890406.894,-13.184,-30.273,-189.941,-10.254,0.000
1757890406.898,50.293,-22.949,-16.602,3.418,0.000
1757890406.902,-20.508,-31.738,-119.629,-11.719,0.000
1757890406.906,-101.074,-38.574,-232.422,-26.367,0.000
1757890406.910,-48.340,-30.762,-0.488,1.465,0.000
1757890406.914,36.621,-32.227,77.148,10.254,0.000
1757890406.918,-2.930,-41.992,-89.844,-1.953,0.000
1757890406.922,-94.727,-48.828,-169.922,-14.648,0.000
1757890406.926,-90.820,-41.504,-35.645,-20.020,0.000
1757890406.930,4.883,-37.598,53.223,-13.672,0.000
1757890406.933,22.461,-48.340,-162.109,-9.766,0.000
1757890406.937,-89.355,-59.082,-302.734,-20.996,0.000
1757890406.941,-113.281,-48.828,-187.988,-20.020,0.000
1757890406.945,-16.602,-41.992,-138.672,-4.883,0.000
1757890406.949,20.996,-58.105,-270.508,4.395,0.000
1757890406.953,-68.848,-47.363,-164.062,-8.301,0.000
1757890406.957,-132.812,-33.203,48.828,-28.809,0.000
1757890406.961,-58.594,-43.457,-7.812,-23.438,0.000
1757890406.965,31.250,-44.922,-76.172,-9.277,0.000
1757890406.969,-24.414,-33.691,1.465,-13.184,0.000
1757890406.973,-117.188,-33.691,77.148,-31.738,0.000
1757890406.976,-88.379,-46.875,-57.617,-29.297,0.000
1757890406.980,0.488,-50.781,-272.461,-5.371,0.000
1757890406.984,-25.879,-37.109,-202.148,-18.066,0.000
1757890406.988,-115.234,-27.344,-8.301,-41.504,0.000
1757890406.992,-113.281,-38.086,-184.570,-37.109,0.000
1757890406.996,-16.113,-45.410,-323.730,-19.043,0.000
1757890407.000,16.113,-30.762,35.645,-8.789,0.000
1757890407.004,-80.566,-36.621,19.043,-18.555,0.000
1757890407.008,-136.230,-47.363,-159.180,-36.133,0.000
1757890407.012,-42.969,-33.691,-23.438,-29.785,0.000
1757890407.016,27.832,-28.320,94.238,-21.484,0.000
1757890407.020,-57.129,-33.203,2.930,-36.133,0.000
1757890407.023,-126.465,-31.250,-179.199,-60.059,0.000
1757890407.027,-59.570,-39.551,-246.582,-49.316,0.000
1757890407.031,22.461,-40.039,-208.008,-35.645,0.000
1757890407.035,-25.391,-30.762,-207.031,-46.875,0.000
1757890407.039,-125.977,-41.016,-413.086,-53.711,0.000
1757890407.043,-93.750,-41.992,-336.426,-49.316,0.000
1757890407.047,19.043,-30.762,70.801,-38.574,0.000
1757890407.051,4.883,-37.109,12.695,-40.039,0.000
1757890407.055,-90.820,-34.180,-155.762,-56.152,0.000
1757890407.059,-102.051,-28.809,-134.766,-59.082,0.000
1757890407.063,-15.137,-36.133,-154.297,-47.852,0.000
1757890407.066,13.184,-35.156,-240.723,-42.969,0.000
1757890407.070,-83.496,-30.762,-267.578,-58.594,0.000
1757890407.074,-137.207,-35.645,-303.711,-67.871,0.000
1757890407.078,-38.086,-41.992,-152.344,-46.387,0.000
1757890407.082,30.273,-50.781,-177.734,-40.039,0.000
1757890407.086,-61.523,-48.828,-392.578,-50.293,0.000
1757890407.090,-131.836,-30.762,-147.949,-65.918,0.000
1757890407.094,-69.336,-30.762,25.391,-60.547,0.000
1757890407.097,25.879,-37.109,-76.660,-39.551,0.000
1757890407.102,-9.766,-35.645,-79.102,-43.457,0.000
1757890407.106,-111.816,-31.738,65.918,-64.941,0.000
1757890407.109,-84.473,-32.715,37.598,-61.523,0.000
1757890407.113,20.020,-36.621,-59.570,-29.297,0.000
1757890407.117,15.137,-32.227,-168.457,-33.203,0.000
1757890407.121,-88.867,-26.367,-242.188,-54.688,0.000
1757890407.125,-112.305,-28.809,-212.891,-51.270,0.000
1757890407.129,-19.531,-43.457,-384.277,-35.645,0.000
1757890407.133,16.113,-32.715,-328.613,-33.691,0.000
1757890407.137,-69.336,-18.555,42.480,-61.035,0.000
1757890407.140,-132.324,-27.832,-14.648,-71.777,0.000
1757890407.144,-61.035,-25.879,-122.070,-50.293,0.000
1757890407.148,11.719,-30.762,6.348,-39.551,0.000
1757890407.152,-43.457,-40.039,78.125,-58.594,0.000
1757890407.156,-115.234,-42.480,-129.395,-75.684,0.000
1757890407.160,-74.707,-36.133,-173.340,-64.453,0.000
1757890407.164,12.207,-33.691,52.734,-46.875,0.000
1757890407.168,-20.996,-42.969,-113.770,-47.363,0.000
1757890407.172,-120.605,-39.551,-386.230,-62.012,0.000
1757890407.176,-113.770,-31.250,-388.184,-61.035,0.000
1757890407.180,-14.648,-21.484,-37.109,-46.387,0.000
1757890407.183,3.906,-21.484,106.934,-50.781,0.000
1757890407.187,-95.703,-30.273,-126.953,-63.965,0.000
1757890407.191,-139.648,-29.785,-202.637,-64.941,0.000
1757890407.195,-48.828,-30.273,27.832,-47.852,0.000
1757890407.199,19.531,-35.645,73.242,-37.598,0.000
1757890407.203,-60.547,-33.691,-95.215,-54.688,0.000
1757890407.207,-133.789,-31.738,-148.926,-71.777,0.000
1757890407.211,-60.059,-32.715,-67.871,-62.012,0.000
1757890407.215,20.020,-38.086,-142.578,-41.992,0.000
1757890407.219,-46.387,-46.875,-414.551,-37.598,0.000
1757890407.222,-133.301,-42.969,-404.297,-57.617,0.000
1757890407.226,-70.312,-32.715,-22.949,-58.105,0.000
1757890407.230,31.738,-38.574,-101.074,-29.297,0.000
1757890407.234,-1.465,-35.156,-229.004,-44.434,0.000
1757890407.238,-107.910,-36.621,-157.715,-71.289,0.000
1757890407.242,-115.723,-40.039,-2.930,-70.801,0.000
1757890407.246,-12.207,-34.668,2.441,-53.711,0.000
1757890407.250,3.418,-36.133,-150.391,-46.875,0.000
1757890407.254,-100.098,-41.016,-26.855,-57.129,0.000
1757890407.258,-132.812,-39.551,60.059,-65.918,0.000
1757890407.262,-48.340,-48.828,-194.336,-38.574,0.000
1757890407.265,4.395,-51.270,-391.602,-14.648,0.000
1757890407.269,-68.848,-28.809,-116.211,-26.855,0.000
1757890407.273,-131.836,-26.855,71.289,-42.969,0.000
1757890407.277,-63.965,-27.832,-119.629,-40.527,0.000
1757890407.281,34.180,-23.438,-214.355,-20.508,0.000
1757890407.285,-9.277,-21.973,-104.492,-19.531,0.000
1757890407.289,-112.305,-27.344,-120.117,-28.320,0.000
1757890407.293,-94.238,-38.086,-139.160,-32.227,0.000
1757890407.297,13.184,-28.320,-50.781,-15.625,0.000
1757890407.301,9.277,-26.855,61.035,-19.531,0.000
1757890407.304,-89.844,-28.320,-21.484,-39.551,0.000
1757890407.308,-115.234,-34.180,-216.309,-39.551,0.000
1757890407.312,-28.809,-46.387,-252.930,-38.086,0.000
1757890407.316,25.879,-37.109,-168.457,-24.902,0.000
1757890407.320,-62.012,-30.762,-176.758,-33.691,0.000
1757890407.324,-120.605,-38.574,-275.879,-49.805,0.000
1757890407.328,-43.457,-34.180,-63.965,-30.273,0.000
1757890407.332,22.949,-28.320,82.520,-9.766,0.000
1757890407.336,-44.434,-30.762,-15.625,-17.090,0.000
1757890407.340,-117.188,-34.668,-212.891,-33.691,0.000
1757890407.344,-62.988,-31.738,-253.906,-29.785,0.000
1757890407.347,26.367,-27.344,26.367,-11.230,0.000
1757890407.351,-12.207,-37.109,-68.359,-14.160,0.000
1757890407.355,-113.770,-43.457,-357.910,-29.785,0.000
1757890407.359,-87.402,-23.926,-248.535,-23.926,0.000
1757890407.363,26.855,-18.066,23.926,-9.766,0.000
1757890407.367,25.391,-38.574,-178.711,-12.695,0.000
1757890407.371,-79.590,-45.898,-406.738,-32.715,0.000
1757890407.375,-101.074,-30.273,-127.441,-42.480,0.000
1757890407.378,-8.789,-30.762,7.324,-21.973,0.000
1757890407.383,34.180,-43.457,-46.387,-10.742,0.000
1757890407.387,-52.734,-42.480,-140.137,-37.598,0.000
1757890407.390,-113.281,-32.227,-9.277,-42.969,0.000
1757890407.394,-36.621,-35.645,25.391,-19.531,0.000
1757890407.398,50.781,-42.969,-149.902,-9.277,0.000
1757890407.402,-16.602,-39.062,-263.672,-27.832,0.000
1757890407.406,-105.957,-38.574,-263.672,-42.480,0.000
1757890407.410,-63.965,-36.133,-200.684,-39.551,0.000
1757890407.414,14.648,-48.828,-363.770,-30.762,0.000
1757890407.418,-8.789,-43.945,-318.848,-28.809,0.000
1757890407.422,-94.727,-27.832,45.410,-39.551,0.000
1757890407.425,-86.426,-35.645,-2.441,-38.086,0.000
1757890407.430,10.254,-41.992,-111.816,-21.484,0.000
1757890407.434,33.203,-33.203,-15.625,-13.672,0.000
1757890407.437,-63.965,-20.508,58.594,-37.109,0.000
1757890407.441,-122.559,-38.086,-108.887,-50.781,0.000
1757890407.445,-27.832,-40.527,-180.176,-31.738,0.000
1757890407.449,26.855,-31.738,-168.945,-17.578,0.000
1757890407.453,-71.289,-38.574,-212.402,-30.273,0.000
1757890407.457,-135.742,-39.551,-313.965,-33.203,0.000
1757890407.461,-66.895,-38.574,-378.418,-24.902,0.000
1757890407.465,24.902,-27.832,-6.348,-12.207,0.000
1757890407.468,-23.438,-24.414,107.422,-21.484,0.000
1757890407.472,-120.117,-29.785,-109.863,-39.062,0.000
1757890407.476,-88.379,-27.832,-104.004,-31.738,0.000
1757890407.480,18.066,-24.414,82.520,-20.020,0.000
1757890407.484,13.184,-27.344,32.715,-18.555,0.000
1757890407.488,-83.496,-30.762,-154.297,-26.855,0.000
1757890407.492,-93.262,-27.832,-120.605,-23.926,0.000
1757890407.496,-7.812,-28.320,-138.184,-18.555,0.000
1757890407.500,17.090,-29.785,-219.727,-22.461,0.000
1757890407.504,-83.008,-35.645,-375.488,-35.156,0.000
1757890407.508,-129.395,-29.785,-438.477,-40.527,0.000
1757890407.511,-24.414,-13.184,-47.852,-22.949,0.000
1757890407.515,43.457,-19.043,58.594,-13.184,0.000
1757890407.519,-30.762,-23.438,-141.602,-20.508,0.000
1757890407.523,-102.539,-28.809,-88.867,-30.762,0.000
1757890407.527,-49.316,-38.086,85.449,-31.250,0.000
1757890407.531,39.551,-41.016,23.438,-11.230,0.000
1757890407.535,-0.977,-36.133,-96.191,-12.695,0.000
1757890407.539,-97.656,-24.902,-27.344,-33.691,0.000
1757890407.543,-87.891,-30.273,-113.281,-32.715,0.000
1757890407.547,16.113,-35.156,-268.555,-5.859,0.000
1757890407.551,14.648,-37.598,-333.496,2.441,0.000
1757890407.554,-89.355,-36.133,-38.086,-30.762,0.000
1757890407.558,-90.820,-35.645,111.328,-38.574,0.000
1757890407.562,5.859,-37.109,-104.004,-15.137,0.000
1757890407.566,29.297,-41.992,-176.270,-3.906,0.000
1757890407.570,-53.223,-36.133,17.578,-16.602,0.000
1757890407.574,-108.887,-34.668,72.754,-36.133,0.000
1757890407.578,-48.828,-45.410,-76.172,-22.461,0.000
1757890407.582,27.832,-44.434,-50.293,-7.812,0.000
1757890407.586,-31.250,-43.945,62.500,-20.020,0.000
1757890407.590,-110.840,-41.504,-107.422,-38.086,0.000
1757890407.593,-65.918,-46.875,-391.113,-30.273,0.000
1757890407.597,23.926,-42.969,-274.902,-5.859,0.000
1757890407.601,11.230,-26.367,104.980,-10.742,0.000
1757890407.605,-84.961,-32.227,21.484,-28.320,0.000
1757890407.609,-73.242,-39.062,-120.605,-33.203,0.000
1757890407.613,37.598,-31.738,8.789,-15.137,0.000
1757890407.617,41.992,-28.320,117.188,-14.160,0.000
1757890407.621,-75.684,-41.016,-94.727,-27.344,0.000
1757890407.625,-115.234,-40.039,-165.039,-35.645,0.000
1757890407.629,-10.742,-27.344,59.570,-18.066,0.000
1757890407.633,47.363,-32.715,107.910,-2.930,0.000
1757890407.636,-49.805,-52.734,-195.801,-13.184,0.000
1757890407.640,-118.652,-50.293,-361.816,-18.066,0.000
1757890407.644,-33.691,-26.855,-31.250,-7.812,0.000
1757890407.648,46.875,-26.367,139.648,-15.625,0.000
1757890407.652,-30.762,-44.434,-148.438,-32.715,0.000
1757890407.656,-124.023,-38.574,-273.926,-34.668,0.000
1757890407.660,-67.871,-21.973,36.133,-27.832,0.000
1757890407.664,29.785,-23.926,85.938,-13.184,0.000
1757890407.668,1.465,-30.762,-59.082,-14.160,0.000
1757890407.672,-93.750,-32.715,-42.480,-30.762,0.000
1757890407.676,-89.355,-33.203,17.578,-30.762,0.000
1757890407.680,10.742,-40.527,-128.418,-14.160,0.000
1757890407.684,28.809,-49.805,-326.172,-8.789,0.000
1757890407.687,-67.871,-41.992,-362.305,-18.555,0.000
1757890407.691,-108.398,-26.367,-169.922,-37.109,0.000
1757890407.695,-21.484,-25.879,-25.391,-25.879,0.000
1757890407.699,32.715,-30.762,-77.637,-8.789,0.000
1757890407.703,-51.758,-35.645,-66.895,-34.180,0.000
1757890407.707,-114.746,-39.062,78.613,-43.945,0.000
1757890407.711,-51.758,-45.410,17.578,-29.785,0.000
1757890407.715,31.738,-44.434,-21.484,-22.461,0.000
1757890407.719,-8.301,-44.922,54.199,-28.320,0.000
1757890407.723,-107.422,-45.410,85.449,-41.992,0.000
1757890407.727,-82.031,-42.480,-30.762,-34.668,0.000
1757890407.730,17.578,-39.062,-218.262,-14.648,0.000
1757890407.734,3.418,-41.992,-248.535,-26.367,0.000
1757890407.738,-92.773,-45.410,-117.676,-42.480,0.000
1757890407.742,-114.746,-43.945,-150.879,-33.691,0.000
1757890407.746,-24.902,-47.363,-205.078,-30.762,0.000
1757890407.750,20.996,-33.691,41.016,-27.344,0.000
1757890407.754,-57.617,-24.902,106.445,-28.809,0.000
1757890407.758,-109.863,-42.969,-202.148,-39.062,0.000
1757890407.762,-35.645,-40.527,-262.695,-27.344,0.000
1757890407.766,30.273,-26.855,106.445,-20.020,0.000
1757890407.770,-36.621,-32.227,100.098,-37.598,0.000
1757890407.774,-114.746,-38.574,-161.133,-43.945,0.000
1757890407.777,-67.871,-40.527,-284.668,-23.438,0.000
1757890407.781,30.762,-32.715,-179.199,-12.695,0.000
1757890407.785,1.465,-31.250,-176.270,-22.461,0.000
1757890407.789,-104.492,-43.945,-378.418,-30.762,0.000
1757890407.793,-83.984,-40.527,-295.898,-33.203,0.000
1757890407.797,30.762,-35.156,131.348,-15.137,0.000
1757890407.801,34.180,-42.480,58.105,-20.020,0.000
1757890407.805,-82.031,-34.180,-107.910,-57.129,0.000
1757890407.809,-111.816,-21.973,-20.020,-66.406,0.000
1757890407.813,-9.766,-21.973,111.816,-38.574,0.000
1757890407.817,35.645,-25.391,23.438,-25.391,0.000
1757890407.820,-54.688,-30.273,-145.508,-39.062,0.000
1757890407.824,-125.000,-30.273,-237.305,-45.898,0.000
1757890407.828,-47.363,-19.531,-123.535,-35.645,0.000
1757890407.832,37.598,-17.578,-87.891,-17.578,0.000
1757890407.836,-37.109,-32.715,-309.570,-36.621,0.000
1757890407.840,-122.070,-23.926,-65.918,-55.176,0.000
1757890407.844,-70.312,-24.902,65.430,-32.227,0.000
1757890407.848,21.973,-37.598,-104.980,-17.578,0.000
1757890407.852,-3.906,-29.297,-77.148,-28.320,0.000
1757890407.856,-107.422,-19.043,48.340,-52.246,0.000
1757890407.859,-102.539,-25.879,46.387,-49.805,0.000
1757890407.863,1.953,-39.062,-62.988,-31.250,0.000
1757890407.867,20.996,-34.668,-14.648,-28.320,0.000
1757890407.871,-77.148,-35.156,-66.895,-33.203,0.000
1757890407.875,-117.676,-36.133,-195.801,-48.340,0.000
1757890407.879,-28.320,-34.180,-337.402,-39.062,0.000
1757890407.883,35.645,-24.902,-262.695,-42.480,0.000
1757890407.887,-52.246,-14.648,116.211,-65.430,0.000
1757890407.891,-134.277,-31.250,0.977,-62.988,0.000
1757890407.894,-52.246,-28.320,-95.703,-44.922,0.000
1757890407.899,40.039,-27.344,-29.785,-31.738,0.000
1757890407.902,-16.602,-35.156,-61.523,-41.504,0.000
1757890407.906,-109.375,-41.016,-152.832,-57.617,0.000
1757890407.910,-68.359,-39.062,-136.230,-50.293,0.000
1757890407.914,27.832,-33.691,-10.742,-30.273,0.000
1757890407.918,-1.465,-46.387,-155.762,-35.156,0.000
1757890407.922,-86.914,-48.828,-316.406,-46.387,0.000
1757890407.926,-91.309,-49.805,-355.469,-50.293,0.000
1757890407.930,15.625,-37.109,-43.457,-34.180,0.000
1757890407.934,50.293,-27.832,116.211,-27.832,0.000
1757890407.937,-61.523,-37.598,-127.930,-45.898,0.000
1757890407.941,-113.281,-37.598,-153.320,-47.363,0.000
1757890407.945,-21.973,-39.551,91.797,-36.621,0.000
1757890407.949,37.109,-46.875,84.961,-36.133,0.000
1757890407.953,-45.898,-54.688,-91.309,-42.969,0.000
1757890407.957,-123.535,-54.199,-208.496,-51.758,0.000
1757890407.961,-68.359,-47.852,-67.871,-49.805,0.000
1757890407.965,25.879,-56.152,-91.309,-32.715,0.000
1757890407.969,-23.926,-68.848,-397.461,-20.508,0.000
1757890407.973,-125.488,-47.363,-375.488,-31.738,0.000
1757890407.977,-83.008,-25.879,43.457,-55.664,0.000
1757890407.980,20.996,-41.504,59.082,-35.645,0.000
1757890407.984,1.465,-41.016,-150.879,-27.832,0.000
1757890407.988,-103.516,-41.016,-96.191,-54.688,0.000
1757890407.992,-111.328,-39.551,56.152,-58.594,0.000
1757890407.996,-8.301,-37.598,28.320,-31.738,0.000
1757890408.000,26.855,-46.875,-144.531,-22.461,0.000
1757890408.004,-62.988,-36.133,-76.660,-38.086,0.000
1757890408.008,-113.770,-28.809,24.414,-56.152,0.000
1757890408.012,-36.621,-41.992,-200.684,-49.805,0.000
1757890408.016,28.320,-52.246,-371.094,-23.926,0.000
1757890408.019,-41.504,-37.109,-159.180,-36.133,0.000
1757890408.023,-113.281,-27.344,59.082,-55.664,0.000
1757890408.027,-57.129,-34.668,-84.961,-39.062,0.000
1757890408.031,37.109,-29.785,-109.863,-20.508,0.000
1757890408.035,11.230,-24.902,63.965,-17.090,0.000
1757890408.039,-95.215,-25.391,39.062,-38.086,0.000
1757890408.043,-99.121,-33.203,-85.449,-50.781,0.000
1757890408.047,6.348,-44.434,-79.590,-29.297,0.000
1757890408.051,21.484,-36.621,66.895,-21.973,0.000
1757890408.055,-77.637,-32.227,13.672,-33.203,0.000
1757890408.059,-107.422,-51.758,-235.840,-28.809,0.000
1757890408.062,-16.602,-41.992,-258.301,-8.301,0.000
1757890408.066,28.320,-24.414,-183.105,10.742,0.000
1757890408.070,-43.945,-30.762,-254.883,-13.184,0.000
1757890408.074,-99.609,-34.180,-268.555,-31.250,0.000
1757890408.078,-35.156,-31.738,-36.621,-24.414,0.000
1757890408.082,43.945,-29.785,82.031,-12.695,0.000
1757890408.086,-22.461,-35.156,-28.320,-17.090,0.000
1757890408.090,-119.629,-34.180,-152.832,-29.297,0.000
1757890408.094,-71.777,-29.297,-30.273,-20.996,0.000
1757890408.098,33.691,-38.574,104.004,-15.137,0.000
1757890408.102,4.395,-46.387,-27.344,-12.207,0.000
1757890408.106,-103.516,-49.316,-240.723,-26.367,0.000
1757890408.109,-98.145,-45.410,-233.887,-33.691,0.000
1757890408.113,14.648,-38.574,43.457,-22.461,0.000
1757890408.117,22.949,-42.969,-115.234,-19.531,0.000
1757890408.121,-87.402,-49.805,-437.500,-31.250,0.000
1757890408.125,-113.281,-32.227,-234.863,-40.527,0.000
1757890408.129,-17.578,-27.344,0.488,-26.855,0.000
1757890408.133,35.156,-37.598,-40.527,-15.625,0.000
1757890408.137,-36.621,-36.621,-149.902,-22.949,0.000
1757890408.141,-98.145,-32.227,3.906,-39.062,0.000
1757890408.145,-39.551,-24.414,68.848,-37.109,0.000
1757890408.149,46.387,-24.414,-92.773,-15.625,0.000
1757890408.152,-4.395,-35.156,-240.234,-23.926,0.000
1757890408.156,-101.074,-40.039,-234.375,-43.457,0.000
1757890408.160,-70.312,-34.180,-189.941,-31.738,0.000
1757890408.164,30.273,-35.645,-347.168,-9.277,0.000
1757890408.168,14.648,-37.109,-277.832,-22.949,0.000
1757890408.172,-74.219,-29.297,79.102,-58.594,0.000
1757890408.176,-73.242,-34.668,10.742,-61.523,0.000
1757890408.180,2.441,-39.551,-187.012,-36.133,0.000
1757890408.184,25.879,-36.133,-91.309,-33.691,0.000
1757890408.188,-62.988,-33.203,76.660,-50.293,0.000
1757890408.192,-116.699,-39.062,-35.156,-55.664,0.000
1757890408.195,-36.133,-37.598,-96.680,-47.852,0.000
1757890408.199,19.043,-41.992,-120.117,-42.969,0.000
1757890408.203,-46.387,-40.527,-136.230,-46.387,0.000
1757890408.207,-119.629,-38.086,-197.754,-46.387,0.000
1757890408.211,-65.430,-51.270,-355.957,-41.992,0.000
1757890408.215,23.438,-37.598,-45.898,-42.969,0.000
1757890408.219,-17.090,-21.973,117.188,-43.945,0.000
1757890408.223,-110.352,-31.250,-102.051,-57.617,0.000
1757890408.227,-95.703,-39.551,-124.023,-63.965,0.000
1757890408.231,7.812,-31.250,92.773,-35.156,0.000
1757890408.235,10.742,-32.227,9.277,-20.508,0.000
1757890408.238,-96.680,-42.480,-182.129,-44.434,0.000
1757890408.242,-121.582,-40.527,-80.078,-49.805,0.000
1757890408.246,-20.020,-41.504,-91.309,-30.762,0.000
1757890408.250,19.531,-32.715,-202.148,-28.809,0.000
1757890408.254,-79.102,-35.645,-401.855,-32.227,0.000
1757890408.258,-139.648,-31.250,-330.566,-46.387,0.000
1757890408.262,-43.457,-11.230,74.707,-56.152,0.000
1757890408.266,25.879,-16.602,59.082,-40.527,0.000
1757890408.270,-45.898,-15.625,-133.301,-41.504,0.000
1757890408.274,-120.117,-10.742,-125.977,-54.199,0.000
1757890408.278,-62.988,-11.230,76.660,-45.410,0.000
1757890408.281,30.273,-14.648,20.020,-22.461,0.000
1757890408.285,-4.395,-19.043,-99.609,-25.391,0.000
1757890408.289,-105.469,-20.508,0.488,-46.875,0.000
1757890408.293,-94.238,-20.020,-104.980,-50.781,0.000
1757890408.297,17.578,-25.391,-290.039,-28.320,0.000
1757890408.301,15.625,-32.715,-333.496,-20.996,0.000
1757890408.305,-85.449,-19.043,-62.012,-50.293,0.000
1757890408.309,-106.445,-16.602,76.172,-57.129,0.000
1757890408.312,-6.348,-17.090,-107.910,-29.297,0.000
1757890408.316,48.340,-19.043,-115.723,-19.043,0.000
1757890408.320,-44.434,-20.508,81.055,-37.109,0.000
1757890408.324,-120.605,-20.020,46.875,-50.781,0.000
1757890408.328,-56.641,-27.832,-69.824,-41.016,0.000
1757890408.332,33.691,-24.414,-21.484,-21.484,0.000
1757890408.336,-15.137,-19.531,69.336,-20.996,0.000
1757890408.340,-106.445,-16.602,-87.891,-41.992,0.000
1757890408.344,-74.707,-21.484,-361.816,-48.828,0.000
1757890408.348,23.438,-27.344,-390.137,-23.926,0.000
1757890408.352,12.207,-19.531,-116.211,-27.832,0.000
1757890408.355,-93.262,-23.438,-15.137,-52.734,0.000
1757890408.359,-103.027,-31.250,-142.578,-56.641,0.000
1757890408.363,3.418,-20.996,-26.855,-41.016,0.000
1757890408.367,29.297,-16.602,116.699,-26.367,0.000
1757890408.371,-67.383,-30.273,-27.832,-34.668,0.000
1757890408.375,-109.375,-31.250,-98.633,-48.340,0.000
1757890408.379,-14.160,-19.531,57.617,-26.855,0.000
1757890408.383,42.480,-26.855,98.145,-13.184,0.000
1757890408.387,-39.551,-40.527,-164.062,-28.809,0.000
1757890408.391,-119.141,-41.016,-350.098,-36.621,0.000
1757890408.394,-62.988,-31.250,-44.434,-39.062,0.000
1757890408.398,33.203,-30.273,134.277,-29.297,0.000
1757890408.402,-13.184,-34.668,-121.582,-19.043,0.000
1757890408.406,-110.840,-33.203,-251.465,-31.738,0.000
1757890408.410,-78.613,-25.391,24.902,-34.180,0.000
1757890408.414,31.738,-26.367,109.863,-17.090,0.000
1757890408.418,24.414,-30.762,-78.613,-11.230,0.000
1757890408.422,-78.613,-26.855,-189.453,-24.414,0.000
1757890408.426,-91.797,-21.484,-9.277,-33.691,0.000
1757890408.430,-0.488,-30.762,56.152,-23.438,0.000
1757890408.433,29.297,-40.527,-187.988,-9.277,0.000
1757890408.437,-63.477,-35.156,-275.391,-15.137,0.000
1757890408.441,-106.445,-26.367,-181.641,-23.926,0.000
1757890408.445,-19.043,-27.344,-62.012,-21.973,0.000
1757890408.449,36.133,-33.203,-100.098,-20.508,0.000
1757890408.453,-35.156,-26.367,-45.898,-26.855,0.000
1757890408.457,-109.375,-26.855,63.477,-37.109,0.000
1757890408.461,-59.570,-32.715,-146.484,-34.668,0.000
1757890408.465,29.297,-21.973,-104.004,-28.809,0.000
1757890408.469,-11.719,-21.484,69.824,-36.133,0.000
1757890408.473,-104.004,-27.832,47.852,-49.316,0.000
1757890408.477,-88.867,-35.156,-35.645,-50.293,0.000
1757890408.480,4.883,-37.109,-208.984,-35.156,0.000
1757890408.484,14.648,-22.461,-164.551,-35.645,0.000
1757890408.488,-86.426,-23.926,67.383,-65.918,0.000
1757890408.492,-111.816,-44.434,-148.926,-60.059,0.000
1757890408.496,-18.555,-38.574,-357.910,-31.738,0.000
1757890408.500,24.414,-11.230,-2.441,-31.250,0.000
1757890408.504,-66.406,-22.949,88.379,-51.758,0.000
1757890408.508,-132.812,-36.133,-121.582,-65.918,0.000
1757890408.512,-62.988,-34.668,-82.520,-54.688,0.000
1757890408.516,15.137,-39.551,-43.457,-37.109,0.000
1757890408.520,-44.922,-32.715,-140.137,-50.781,0.000
1757890408.523,-125.488,-30.762,-180.664,-65.430,0.000
1757890408.527,-77.637,-36.133,-245.605,-57.617,0.000
1757890408.531,21.484,-30.273,-185.547,-47.363,0.000
1757890408.535,-3.906,-25.391,-143.555,-48.340,0.000
1757890408.539,-117.676,-34.180,-375.488,-62.012,0.000
1757890408.543,-111.328,-32.227,-285.645,-67.383,0.000
1757890408.547,-1.953,-23.926,120.605,-57.129,0.000
1757890408.551,19.531,-25.391,19.531,-47.363,0.000
1757890408.555,-83.496,-26.855,-128.906,-60.547,0.000
1757890408.559,-119.141,-25.879,1.953,-72.266,0.000
1757890408.563,-22.949,-24.902,103.516,-54.199,0.000
1757890408.566,30.762,-32.715,23.926,-34.180,0.000
1757890408.570,-52.734,-35.156,-157.227,-39.062,0.000
1757890408.574,-116.699,-27.832,-256.348,-58.105,0.000
1757890408.578,-49.805,-25.879,-188.477,-48.340,0.000
1757890408.582,35.645,-32.227,-242.676,-32.227,0.000
1757890408.586,-19.531,-43.457,-364.746,-31.738,0.000
1757890408.590,-127.441,-35.156,-59.082,-56.641,0.000
1757890408.594,-89.844,-25.391,119.629,-56.641,0.000
1757890408.598,27.832,-28.809,-32.227,-26.855,0.000
1757890408.602,12.207,-21.973,-52.246,-28.320,0.000
1757890408.606,-90.332,-15.137,63.477,-42.480,0.000
1757890408.609,-86.914,-19.531,70.801,-44.434,0.000
1757890408.613,0.000,-27.832,-29.785,-39.062,0.000
1757890408.617,16.602,-28.320,-27.344,-39.551,0.000
1757890408.621,-77.637,-33.691,-107.422,-48.340,0.000
1757890408.625,-116.211,-32.227,-206.543,-52.246,0.000
1757890408.629,-40.039,-37.598,-328.125,-36.133,0.000
1757890408.633,14.648,-39.062,-354.004,-32.715,0.000
1757890408.637,-40.039,-25.879,5.859,-55.664,0.000
1757890408.641,-112.305,-26.855,28.809,-55.664,0.000
1757890408.644,-65.918,-28.320,-97.168,-34.180,0.000
1757890408.649,25.879,-27.344,18.555,-33.203,0.000
1757890408.652,-12.207,-24.902,107.910,-45.898,0.000
1757890408.656,-116.699,-30.762,-15.137,-56.641,0.000
1757890408.660,-100.098,-31.738,-125.000,-54.199,0.000
1757890408.664,5.859,-30.273,23.926,-42.480,0.000
1757890408.668,-1.953,-30.273,-4.883,-34.180,0.000
1757890408.672,-109.375,-37.598,-259.277,-46.875,0.000
1757890408.676,-120.605,-42.969,-358.887,-54.199,0.000
1757890408.680,-15.137,-31.250,-29.785,-40.039,0.000
1757890408.683,28.320,-26.367,27.832,-29.297,0.000
1757890408.687,-54.199,-29.297,-257.324,-35.645,0.000
1757890408.691,-112.793,-35.156,-182.129,-57.129,0.000
1757890408.695,-42.480,-41.016,85.449,-53.223,0.000
1757890408.699,20.508,-44.922,92.773,-35.645,0.000
1757890408.703,-55.664,-48.340,-66.895,-54.688,0.000
1757890408.707,-123.535,-42.480,-36.621,-60.547,0.000
1757890408.711,-70.312,-41.992,59.082,-43.457,0.000
1757890408.715,26.855,-39.551,-43.945,-36.621,0.000
1757890408.719,-14.648,-47.852,-336.914,-30.762,0.000
1757890408.723,-125.977,-49.316,-363.770,-45.898,0.000
1757890408.726,-97.656,-34.668,44.434,-58.594,0.000
1757890408.730,13.672,-38.574,74.219,-39.551,0.000
1757890408.734,16.602,-35.645,-66.895,-33.203,0.000
1757890408.738,-81.055,-28.320,-133.789,-50.293,0.000
1757890408.742,-97.168,-21.484,-52.734,-53.223,0.000
1757890408.746,-7.324,-22.949,23.926,-35.156,0.000
1757890408.750,31.738,-26.367,-42.969,-24.414,0.000
1757890408.754,-54.688,-26.367,42.480,-37.109,0.000
1757890408.758,-119.141,-33.203,55.664,-51.758,0.000
1757890408.762,-51.270,-44.922,-145.508,-45.410,0.000
1757890408.765,25.879,-44.434,-305.664,-30.273,0.000
1757890408.769,-17.578,-22.949,-34.668,-32.227,0.000
1757890408.773,-102.051,-17.090,137.207,-50.293,0.000
1757890408.777,-68.359,-26.367,-66.406,-45.410,0.000
1757890408.781,30.273,-27.344,-94.727,-26.855,0.000
1757890408.785,7.812,-21.484,83.984,-37.109,0.000
1757890408.789,-93.262,-22.461,65.918,-57.129,0.000
1757890408.793,-103.027,-38.086,-105.957,-55.176,0.000
1757890408.797,1.465,-36.621,-105.957,-32.227,0.000
1757890408.801,27.832,-20.996,74.219,-35.645,0.000
1757890408.804,-76.660,-23.438,37.598,-64.941,0.000
1757890408.808,-119.629,-39.062,-197.266,-70.312,0.000
1757890408.812,-34.180,-41.016,-266.602,-47.363,0.000
1757890408.816,27.344,-34.180,-137.207,-41.992,0.000
1757890408.820,-46.875,-34.180,-45.410,-59.082,0.000
1757890408.824,-109.375,-38.574,-233.887,-54.199,0.000
1757890408.828,-51.270,-30.762,-220.215,-41.016,0.000
1757890408.832,30.273,-28.809,92.285,-44.434,0.000
1757890408.836,-9.766,-30.762,16.602,-53.711,0.000
1757890408.840,-98.633,-29.297,-99.121,-59.570,0.000
1757890408.844,-69.336,-28.320,-56.641,-49.805,0.000
1757890408.848,21.484,-24.414,38.086,-31.250,0.000
1757890408.851,4.395,-36.621,-85.449,-33.203,0.000
1757890408.855,-94.727,-49.316,-290.039,-39.062,0.000
1757890408.859,-102.051,-38.086,-156.738,-30.762,0.000
1757890408.863,4.883,-23.438,91.309,-25.391,0.000
1757890408.867,33.691,-31.738,-54.688,-31.738,0.000
1757890408.871,-71.289,-42.969,-308.105,-37.598,0.000
1757890408.875,-115.723,-33.691,-26.855,-41.016,0.000
1757890408.879,-28.320,-30.273,135.254,-39.062,0.000
1757890408.883,32.715,-33.203,-61.035,-32.227,0.000
1757890408.887,-36.133,-30.762,-99.609,-41.992,0.000
1757890408.891,-111.816,-26.855,62.500,-65.918,0.000
1757890408.894,-57.617,-31.250,76.660,-60.547,0.000
1757890408.898,30.273,-36.621,-60.059,-31.738,0.000
1757890408.902,-17.090,-37.109,-243.652,-36.621,0.000
1757890408.906,-110.352,-30.762,-245.605,-55.664,0.000
1757890408.910,-78.613,-27.344,-195.312,-49.316,0.000
1757890408.914,19.531,-38.086,-363.770,-37.598,0.000
1757890408.918,5.859,-32.715,-266.113,-42.969,0.000
1757890408.922,-95.703,-17.578,82.520,-67.383,0.000
1757890408.926,-110.352,-27.344,16.113,-71.777,0.000
1757890408.930,-8.301,-29.785,-33.203,-52.734,0.000
1757890408.934,31.738,-19.531,31.738,-48.340,0.000
1757890408.937,-55.176,-23.926,75.684,-62.012,0.000
1757890408.941,-110.840,-34.180,-34.180,-62.988,0.000
1757890408.945,-40.039,-34.668,-98.633,-55.176,0.000
1757890408.949,33.691,-36.621,-44.922,-40.527,0.000
1757890408.953,-29.297,-28.809,7.812,-38.574,0.000
1757890408.957,-110.352,-30.762,-79.102,-51.758,0.000
1757890408.961,-68.848,-42.969,-350.098,-41.992,0.000
1757890408.965,30.273,-25.879,-95.703,-26.367,0.000
1757890408.969,12.695,-17.090,151.367,-24.414,0.000
1757890408.972,-95.703,-28.809,-93.750,-39.551,0.000
1757890408.977,-93.262,-32.227,-142.090,-44.434,0.000
1757890408.980,12.695,-32.715,120.605,-25.391,0.000
1757890408.984,19.043,-40.527,105.469,-19.043,0.000
1757890408.988,-81.055,-40.039,-51.270,-38.086,0.000
1757890408.992,-114.746,-36.133,-62.988,-45.410,0.000
1757890408.996,-28.320,-41.992,-124.023,-32.715,0.000
1757890409.000,27.832,-37.598,-164.062,-21.484,0.000
1757890409.004,-55.176,-44.434,-332.031,-23.438,0.000
1757890409.008,-124.512,-41.992,-301.270,-47.852,0.000
1757890409.012,-54.688,-18.066,96.191,-53.223,0.000
1757890409.015,21.973,-25.391,77.637,-39.062,0.000
1757890409.019,-26.855,-34.668,-80.078,-37.109,0.000
1757890409.023,-111.816,-32.227,-11.230,-59.082,0.000
1757890409.027,-84.961,-28.320,121.582,-63.477,0.000
1757890409.031,0.977,-37.109,41.992,-46.875,0.000
1757890409.035,-9.766,-45.410,-28.320,-49.805,0.000
1757890409.039,-95.215,-34.668,66.406,-61.035,0.000
1757890409.043,-105.469,-36.133,-27.832,-69.824,0.000
1757890409.047,-15.625,-43.457,-209.961,-47.852,0.000
1757890409.051,10.742,-39.551,-269.531,-16.113,0.000
1757890409.054,-87.891,-27.832,-112.305,-38.574,0.000
1757890409.058,-125.488,-25.391,72.754,-55.176,0.000
1757890409.062,-22.461,-36.621,3.418,-31.250,0.000
1757890409.066,41.992,-38.086,-15.625,-27.344,0.000
1757890409.070,-41.504,-29.785,114.258,-41.992,0.000
1757890409.074,-110.352,-37.109,-26.367,-44.922,0.000
1757890409.078,-48.340,-39.551,-175.293,-29.785,0.000
1757890409.082,41.016,-29.785,6.348,-4.395,0.000
1757890409.086,-3.906,-30.273,58.594,-12.207,0.000
1757890409.090,-98.145,-35.645,-107.422,-29.785,0.000
1757890409.094,-69.824,-42.969,-315.918,-13.672,0.000
1757890409.097,26.855,-44.434,-305.176,9.766,0.000
1757890409.101,18.555,-28.809,67.383,-5.371,0.000
1757890409.105,-74.219,-36.621,84.961,-21.973,0.000
1757890409.109,-85.449,-45.898,-35.645,-23.926,0.000
1757890409.113,3.418,-42.969,43.945,-17.578,0.000
1757890409.117,33.691,-43.945,126.465,-7.324,0.000
1757890409.121,-60.059,-43.945,33.691,-22.461,0.000
1757890409.125,-111.816,-43.457,-34.668,-31.738,0.000
1757890409.129,-27.832,-30.762,16.113,-22.461,0.000
1757890409.133,37.598,-30.273,50.293,-18.066,0.000
1757890409.137,-36.621,-49.805,-104.004,-16.602,0.000
1757890409.140,-116.699,-51.270,-295.410,-23.438,0.000
1757890409.144,-60.547,-32.715,-26.855,-21.484,0.000
1757890409.148,37.109,-29.297,142.090,-13.184,0.000
1757890409.152,-0.488,-42.480,-70.312,-26.367,0.000
1757890409.156,-103.516,-45.410,-144.531,-38.086,0.000
1757890409.160,-81.543,-36.133,76.172,-23.926,0.000
1757890409.164,23.926,-38.574,124.023,-9.277,0.000
1757890409.168,17.578,-50.781,-38.574,-18.066,0.000
1757890409.172,-83.496,-45.898,-92.285,-40.039,0.000
1757890409.176,-97.656,-36.133,46.875,-42.480,0.000
1757890409.179,0.977,-37.598,56.641,-23.926,0.000
1757890409.183,30.273,-44.434,-199.219,-13.184,0.000
1757890409.187,-70.801,-43.945,-286.133,-32.715,0.000
1757890409.191,-117.676,-41.016,-156.738,-50.293,0.000
1757890409.195,-39.062,-40.039,-171.387,-45.898,0.000
1757890409.199,28.320,-40.527,-195.312,-28.809,0.000
1757890409.203,-34.668,-38.086,-43.457,-33.203,0.000
1757890409.207,-113.770,-34.180,96.191,-48.340,0.000
1757890409.211,-64.453,-37.109,42.480,-33.691,0.000
1757890409.215,29.785,-30.273,35.645,-12.207,0.000
1757890409.219,-3.418,-22.461,62.988,-25.391,0.000
1757890409.222,-107.422,-30.762,61.035,-46.875,0.000
1757890409.226,-106.934,-36.133,4.883,-41.016,0.000
1757890409.230,-5.859,-39.551,-182.617,-34.180,0.000
1757890409.234,12.695,-40.527,-83.496,-28.320,0.000
1757890409.238,-84.961,-43.457,115.723,-28.320,0.000
1757890409.242,-121.094,-51.758,-152.344,-34.180,0.000
1757890409.246,-37.598,-46.387,-312.988,-27.832,0.000
1757890409.250,30.762,-23.926,20.020,-31.250,0.000
1757890409.254,-32.715,-26.367,110.840,-45.898,0.000
1757890409.258,-105.469,-35.645,-98.633,-50.293,0.000
1757890409.262,-48.340,-34.180,-79.590,-36.621,0.000
1757890409.265,32.715,-36.133,114.258,-24.902,0.000
1757890409.269,-11.719,-37.109,68.359,-31.250,0.000
1757890409.273,-102.539,-39.551,-91.797,-44.434,0.000
1757890409.277,-75.195,-36.621,-202.637,-49.316,0.000
1757890409.281,24.902,-31.250,-188.477,-42.480,0.000
1757890409.285,3.906,-35.645,-164.062,-49.316,0.000
1757890409.289,-107.422,-41.504,-358.887,-49.805,0.000
1757890409.293,-109.863,-32.715,-272.461,-39.062,0.000
1757890409.297,-2.441,-23.926,87.891,-23.438,0.000
1757890409.300,28.809,-35.645,-41.992,-13.184,0.000
1757890409.305,-66.406,-36.133,-138.184,-39.062,0.000
1757890409.308,-106.445,-25.879,11.719,-45.898,0.000
1757890409.312,-27.832,-29.785,110.840,-28.320,0.000
1757890409.316,25.391,-32.715,14.648,-18.066,0.000
1757890409.320,-39.551,-27.344,-57.129,-34.668,0.000
1757890409.324,-119.141,-34.668,-159.668,-57.129,0.000
1757890409.328,-68.359,-31.738,-50.781,-37.598,0.000
1757890409.332,24.414,-29.297,41.016,-24.414,0.000
1757890409.336,-23.438,-46.875,-255.859,-45.898,0.000
1757890409.340,-115.234,-35.645,-59.082,-65.430,0.000
1757890409.343,-84.961,-21.973,135.742,-53.223,0.000
1757890409.347,17.090,-28.320,-16.602,-34.668,0.000
1757890409.351,14.160,-27.832,-108.398,-35.645,0.000
1757890409.355,-90.820,-20.020,-38.086,-52.734,0.000
1757890409.359,-99.609,-21.973,61.523,-52.246,0.000
1757890409.363,-1.953,-30.762,14.160,-33.203,0.000
1757890409.367,25.391,-29.297,-43.945,-20.508,0.000
1757890409.371,-68.848,-34.668,-162.598,-33.203,0.000
1757890409.375,-111.328,-33.203,-206.055,-42.480,0.000
1757890409.379,-32.227,-31.738,-330.566,-25.879,0.000
1757890409.383,42.969,-25.879,-213.867,-17.090,0.000
1757890409.386,-21.484,-20.508,96.191,-31.738,0.000
1757890409.390,-112.305,-31.250,0.000,-47.363,0.000
1757890409.394,-61.035,-34.180,-117.188,-39.551,0.000
1757890409.398,37.598,-24.902,-3.418,-13.184,0.000
1757890409.402,3.418,-21.973,118.652,-14.648,0.000
1757890409.406,-89.355,-25.391,9.277,-53.711,0.000
1757890409.410,-84.473,-21.973,-139.160,-62.500,0.000
1757890409.414,-0.488,-24.414,16.602,-34.668,0.000
1757890409.418,9.277,-31.738,78.125,-37.598,0.000
1757890409.422,-83.008,-41.992,-224.121,-46.875,0.000
1757890409.426,-112.305,-45.898,-355.957,-41.016,0.000
1757890409.429,-18.555,-29.297,-15.625,-38.574,0.000
1757890409.433,40.039,-23.926,154.785,-26.855,0.000
1757890409.437,-46.387,-21.484,-66.895,-32.715,0.000
1757890409.441,-118.652,-30.762,-152.832,-52.734,0.000
1757890409.445,-39.551,-30.273,66.895,-38.086,0.000
1757890409.449,47.852,-25.391,122.559,-22.949,0.000
1757890409.453,-20.508,-34.668,-56.152,-43.945,0.000
1757890409.457,-104.492,-28.320,-70.801,-61.523,0.000
1757890409.461,-62.500,-34.180,36.133,-58.105,0.000
1757890409.465,26.855,-40.527,-73.730,-42.969,0.000
1757890409.468,-0.977,-46.387,-322.754,-29.785,0.000
1757890409.472,-105.957,-48.340,-396.484,-38.574,0.000
1757890409.476,-100.586,-32.227,-169.922,-58.594,0.000
1757890409.480,3.418,-32.715,-23.926,-54.199,0.000
1757890409.484,17.090,-39.062,-77.637,-39.551,0.000
1757890409.488,-71.777,-36.133,-51.270,-54.199,0.000
1757890409.492,-105.957,-36.621,95.215,-69.824,0.000
1757890409.496,-31.250,-47.852,51.270,-62.500,0.000
1757890409.500,24.414,-48.340,-54.688,-48.828,0.000
1757890409.504,-46.387,-38.574,12.207,-58.105,0.000
1757890409.507,-101.562,-42.969,70.312,-84.961,0.000
1757890409.511,-36.133,-49.805,-157.227,-70.312,0.000
1757890409.515,28.809,-50.293,-311.523,-36.133,0.000
1757890409.519,-14.160,-41.504,-144.531,-51.270,0.000
1757890409.523,-91.309,-33.203,-67.383,-74.219,0.000
1757890409.527,-58.105,-29.297,-113.281,-70.312,0.000
1757890409.531,41.016,-25.391,-79.590,-53.223,0.000
1757890409.535,17.090,-25.391,58.594,-53.223,0.000
1757890409.539,-78.125,-25.391,53.711,-79.102,0.000
1757890409.543,-90.820,-31.250,-83.496,-84.961,0.000
1757890409.547,-3.418,-38.086,-86.914,-70.312,0.000
1757890409.550,35.645,-30.273,110.352,-63.477,0.000
1757890409.554,-54.199,-28.320,26.855,-76.172,0.000
1757890409.558,-98.145,-31.738,-216.309,-70.312,0.000
1757890409.562,-13.672,-30.762,-217.773,-53.223,0.000
1757890409.566,41.992,-28.809,-136.719,-53.223,0.000
1757890409.570,-33.691,-26.855,-26.855,-68.359,0.000
1757890409.574,-118.164,-39.062,-224.609,-74.707,0.000
1757890409.578,-70.801,-38.574,-289.551,-70.801,0.000
1757890409.581,30.273,-22.461,58.105,-64.453,0.000
1757890409.586,-3.418,-25.391,45.410,-69.824,0.000
1757890409.590,-104.980,-34.668,-121.582,-90.820,0.000
1757890409.593,-90.820,-30.762,-9.277,-86.914,0.000
1757890409.597,15.137,-21.484,125.488,-56.641,0.000
1757890409.601,16.113,-28.809,49.316,-50.781,0.000
1757890409.605,-102.051,-42.480,-200.195,-73.242,0.000
1757890409.609,-122.070,-35.156,-166.016,-82.031,0.000
1757890409.613,-11.719,-28.320,87.891,-64.453,0.000
1757890409.617,18.555,-39.062,-20.508,-50.781,0.000
1757890409.621,-77.637,-41.016,-263.672,-62.012,0.000
1757890409.625,-114.746,-27.344,-49.316,-72.754,0.000
1757890409.628,-38.574,-24.414,123.535,-63.965,0.000
1757890409.633,32.715,-27.832,-81.055,-41.016,0.000
1757890409.636,-20.020,-29.785,-147.461,-35.156,0.000
1757890409.640,-116.699,-29.785,33.203,-46.875,0.000
1757890409.644,-88.867,-31.738,83.496,-65.918,0.000
1757890409.648,8.789,-38.086,-43.945,-49.805,0.000
1757890409.652,-10.742,-34.668,-192.871,-35.156,0.000
1757890409.656,-113.281,-27.344,-208.008,-54.688,0.000
1757890409.660,-116.699,-24.414,-180.664,-62.012,0.000
1757890409.664,-13.672,-34.668,-353.027,-43.945,0.000
1757890409.668,-1.953,-33.203,-292.480,-45.410,0.000
1757890409.671,-101.562,-17.090,83.984,-69.824,0.000
1757890409.675,-120.605,-23.926,24.902,-65.918,0.000
1757890409.679,-27.344,-31.250,-98.633,-44.922,0.000
1757890409.683,19.531,-25.391,28.320,-40.527,0.000
1757890409.687,-62.012,-22.949,5.859,-52.246,0.000
1757890409.691,-124.512,-27.344,-219.238,-61.035,0.000
1757890409.695,-62.988,-34.668,-136.230,-60.547,0.000
1757890409.699,11.719,-39.062,-41.016,-47.363,0.000
1757890409.703,-45.898,-38.574,-90.820,-43.945,0.000
1757890409.707,-131.348,-41.992,-104.492,-54.199,0.000
1757890409.711,-102.051,-40.039,-284.668,-59.082,0.000
1757890409.714,-0.977,-17.090,-49.805,-50.781,0.000
1757890409.718,-4.883,-16.602,168.945,-47.852,0.000
1757890409.722,-113.770,-36.621,-116.211,-54.199,0.000
1757890409.726,-115.234,-28.809,-176.270,-53.711,0.000
1757890409.730,-1.465,-16.113,94.238,-42.480,0.000
1757890409.734,22.461,-20.996,107.422,-35.645,0.000
1757890409.738,-72.754,-30.273,-53.223,-48.828,0.000
1757890409.742,-107.910,-24.414,-53.711,-46.875,0.000
1757890409.746,-32.227,-27.344,-54.199,-30.273,0.000
1757890409.750,16.602,-35.156,-161.133,-28.320,0.000
1757890409.754,-65.430,-41.992,-372.070,-35.645,0.000
1757890409.757,-134.277,-31.250,-315.918,-42.969,0.000
1757890409.761,-58.594,-12.695,80.078,-33.691,0.000
1757890409.765,30.273,-22.949,61.035,-19.043,0.000
1757890409.769,-17.090,-33.691,-94.238,-37.109,0.000
1757890409.773,-103.027,-25.391,-47.363,-57.617,0.000
1757890409.777,-81.543,-26.855,79.590,-45.410,0.000
1757890409.781,8.301,-41.016,-9.277,-27.832,0.000
1757890409.785,2.930,-44.434,-81.055,-29.297,0.000
1757890409.789,-94.727,-44.434,1.953,-41.016,0.000
1757890409.793,-113.281,-42.969,-100.098,-45.898,0.000
1757890409.797,-25.879,-43.457,-236.816,-28.809,0.000
1757890409.800,1.953,-47.852,-320.801,-23.438,0.000
1757890409.804,-85.938,-39.062,-96.191,-41.992,0.000
1757890409.808,-124.023,-35.645,118.164,-51.270,0.000
1757890409.812,-41.016,-36.133,-30.273,-33.691,0.000
1757890409.816,25.879,-32.227,-119.141,-26.855,0.000
1757890409.820,-40.527,-29.297,35.645,-42.969,0.000
1757890409.824,-125.000,-31.738,71.289,-50.781,0.000
1757890409.828,-75.684,-28.809,-54.199,-39.062,0.000
1757890409.832,21.973,-24.414,-52.246,-31.738,0.000
1757890409.836,-11.230,-31.738,39.062,-33.691,0.000
1757890409.839,-111.328,-38.086,-106.445,-49.805,0.000
1757890409.843,-101.074,-41.992,-395.996,-52.246,0.000
1757890409.847,7.324,-35.645,-290.039,-34.180,0.000
1757890409.851,20.996,-20.508,112.793,-42.969,0.000
1757890409.855,-70.801,-21.484,2.930,-61.035,0.000
1757890409.859,-95.215,-26.855,-164.062,-74.707,0.000
1757890409.863,-12.207,-30.273,-24.902,-66.406,0.000
1757890409.867,32.715,-23.926,120.605,-54.199,0.000
1757890409.871,-55.176,-28.809,6.836,-63.965,0.000
1757890409.875,-112.305,-34.668,-148.438,-74.707,0.000
1757890409.879,-30.273,-22.949,-12.695,-75.684,0.000
1757890409.882,51.758,-9.766,112.793,-48.340,0.000
1757890409.886,-17.578,-22.949,-123.047,-45.410,0.000
1757890409.890,-124.023,-50.781,-369.141,-78.125,0.000
1757890409.894,-71.777,-31.250,-77.148,-80.566,0.000
1757890409.898,48.340,-20.996,62.988,-60.059,0.000
1757890409.902,21.973,-29.297,-225.098,-58.594,0.000
1757890409.906,-79.590,-21.973,-205.078,-72.754,0.000
1757890409.910,-74.707,-21.973,19.043,-76.172,0.000
1757890409.914,21.973,-26.855,-63.477,-64.941,0.000
1757890409.918,48.828,-31.250,-207.031,-57.129,0.000
1757890409.921,-44.922,-32.715,-94.238,-78.613,0.000
1757890409.925,-94.238,-36.133,38.086,-90.332,0.000
1757890409.929,-5.371,-41.016,50.781,-74.707,0.000
1757890409.933,52.246,-44.434,-171.387,-63.965,0.000
1757890409.937,-30.762,-45.898,-348.633,-80.078,0.000
1757890409.941,-97.168,-44.434,-201.660,-104.004,0.000
1757890409.945,-25.879,-41.016,-34.180,-101.074,0.000
1757890409.949,62.988,-41.992,-91.797,-80.078,0.000
1757890409.953,12.207,-38.086,-54.199,-82.520,0.000
1757890409.956,-73.242,-36.621,89.355,-90.820,0.000
1757890409.961,-41.504,-47.852,-10.742,-97.168,0.000
1757890409.964,45.898,-50.293,-119.141,-90.820,0.000
1757890409.968,35.645,-49.805,-163.574,-93.262,0.000
1757890409.972,-52.734,-38.574,-87.402,-118.164,0.000
1757890409.976,-51.758,-30.762,-8.301,-125.000,0.000
1757890409.980,48.828,-36.621,-171.875,-106.934,0.000
1757890409.984,77.637,-33.203,-184.570,-99.609,0.000
1757890409.988,-8.301,-24.902,44.434,-112.793,0.000
1757890409.992,-60.547,-36.621,-112.793,-121.094,0.000
1757890409.996,15.625,-43.945,-333.496,-105.469,0.000
1757890409.999,94.238,-33.203,-34.180,-92.773,0.000
1757890410.003,19.531,-26.855,87.402,-104.980,0.000
1757890410.008,-70.312,-32.227,-121.094,-114.258,0.000
1757890410.011,-18.066,-34.668,-200.195,-112.305,0.000
1757890410.015,75.195,-21.973,27.832,-99.609,0.000
1757890410.019,41.504,-21.973,41.504,-91.309,0.000
1757890410.023,-49.316,-32.227,-167.969,-107.422,0.000
1757890410.027,-41.504,-31.738,-243.652,-110.840,0.000
1757890410.031,54.688,-26.855,-185.059,-96.680,0.000
1757890410.035,62.500,-25.391,-166.504,-104.980,0.000
1757890410.039,-42.480,-38.086,-393.555,-128.906,0.000
1757890410.042,-57.617,-30.762,-389.648,-131.348,0.000
1757890410.046,52.734,-16.113,38.574,-111.816,0.000
1757890410.050,89.355,-24.414,58.594,-104.004,0.000
1757890410.054,-3.418,-21.973,-154.785,-124.512,0.000
1757890410.058,-57.617,-23.926,-181.152,-137.207,0.000
1757890410.062,24.902,-28.809,-20.996,-132.324,0.000
1757890410.066,96.191,-28.809,1.953,-120.117,0.000
1757890410.070,16.113,-37.109,-146.484,-121.582,0.000
1757890410.074,-78.125,-49.316,-244.629,-140.625,0.000
1757890410.078,-37.109,-45.898,-177.246,-138.672,0.000
1757890410.082,58.105,-40.527,-202.148,-114.746,0.000
1757890410.085,22.949,-46.387,-355.957,-106.445,0.000
1757890410.089,-84.473,-33.203,-62.988,-128.906,0.000
1757890410.093,-75.195,-25.391,122.070,-130.371,0.000
1757890410.097,20.996,-33.203,-112.793,-103.516,0.000
1757890410.101,31.738,-43.457,-203.125,-100.586,0.000
1757890410.105,-61.523,-41.992,61.035,-115.723,0.000
1757890410.109,-83.008,-38.086,-72.754,-118.164,0.000
1757890410.113,1.953,-39.062,-265.625,-99.121,0.000
1757890410.117,46.387,-34.180,-85.938,-93.750,0.000
1757890410.121,-33.203,-35.156,-142.578,-112.305,0.000
1757890410.125,-96.191,-35.645,-234.863,-117.188,0.000
1757890410.128,-28.809,-31.250,-375.977,-97.168,0.000
1757890410.132,63.477,-23.438,-313.477,-69.824,0.000
1757890410.136,19.043,-26.367,-72.754,-77.637,0.000
1757890410.140,-83.496,-32.227,-79.590,-103.516,0.000
1757890410.144,-67.871,-27.832,-90.332,-100.586,0.000
1757890410.148,14.160,-29.297,-37.109,-88.379,0.000
1757890410.152,-6.836,-24.902,100.098,-92.773,0.000
1757890410.156,-106.934,-31.738,-45.898,-94.238,0.000
1757890410.160,-120.605,-43.457,-148.438,-87.402,0.000
1757890410.164,-35.156,-37.598,-21.973,-72.266,0.000
1757890410.168,-19.531,-45.898,-139.648,-66.406,0.000
1757890410.171,-121.582,-49.805,-311.035,-74.219,0.000
1757890410.175,-172.852,-52.734,-353.516,-80.078,0.000
1757890410.179,-83.008,-42.480,-87.891,-73.242,0.000
1757890410.183,-17.578,-35.156,115.234,-53.223,0.000
1757890410.187,-98.145,-48.340,-121.582,-62.500,0.000
1757890410.191,-173.828,-51.758,-367.676,-81.543,0.000
1757890410.195,-116.211,-39.062,-139.648,-71.289,0.000
1757890410.199,-27.344,-33.203,86.914,-41.992,0.000
1757890410.203,-80.078,-44.434,-74.219,-38.086,0.000
1757890410.207,-181.641,-46.387,-199.707,-53.223,0.000
1757890410.211,-153.320,-43.457,-56.152,-44.922,0.000
1757890410.214,-57.129,-42.969,-92.285,-25.391,0.000
1757890410.218,-81.055,-58.105,-390.625,-21.973,0.000
1757890410.222,-180.664,-60.547,-416.504,-33.203,0.000
1757890410.226,-175.293,-41.992,-103.516,-47.852,0.000
1757890410.230,-83.984,-41.016,3.418,-31.250,0.000
1757890410.234,-54.688,-41.016,-125.488,-21.484,0.000
1757890410.238,-146.484,-43.945,-110.352,-41.016,0.000
1757890410.242,-194.336,-44.434,22.949,-50.293,0.000
1757890410.246,-114.258,-49.316,-41.504,-32.227,0.000
1757890410.250,-65.918,-55.664,-162.109,-20.508,0.000
1757890410.253,-126.465,-44.922,-64.453,-31.250,0.000
1757890410.257,-190.918,-48.340,36.621,-46.387,0.000
1757890410.261,-141.113,-53.711,-196.777,-33.691,0.000
1757890410.265,-60.547,-53.711,-318.359,-13.184,0.000
1757890410.269,-95.215,-42.480,-71.289,-14.160,0.000
1757890410.273,-183.105,-36.621,67.871,-32.227,0.000
1757890410.277,-166.992,-44.434,-107.910,-26.367,0.000
1757890410.281,-69.336,-39.062,-174.316,5.371,0.000
1757890410.285,-63.965,-34.668,24.902,2.930,0.000
1757890410.289,-157.715,-37.109,80.566,-14.648,0.000
1757890410.292,-180.176,-35.156,-104.004,-6.348,0.000
1757890410.296,-78.125,-33.691,-113.281,7.324,0.000
1757890410.300,-31.738,-38.086,42.480,9.277,0.000
1757890410.304,-124.023,-41.504,-140.137,0.000,0.000
1757890410.308,-191.895,-46.387,-390.137,-1.465,0.000
1757890410.312,-125.977,-44.922,-388.184,14.648,0.000
1757890410.316,-48.828,-34.180,-89.355,12.695,0.000
1757890410.320,-110.840,-37.109,-114.258,-2.441,0.000
1757890410.324,-196.289,-39.551,-269.043,-19.043,0.000
1757890410.327,-150.879,-34.180,-43.457,-21.484,0.000
1757890410.331,-57.129,-30.273,100.586,-5.859,0.000
1757890410.335,-82.031,-35.156,12.207,0.977,0.000
1757890410.339,-175.781,-34.668,-153.809,-11.230,0.000
1757890410.343,-172.852,-28.809,-111.816,-13.184,0.000
1757890410.347,-67.871,-30.762,59.570,5.371,0.000
1757890410.351,-45.410,-35.156,6.836,4.883,0.000
1757890410.355,-149.902,-47.852,-198.242,-5.371,0.000
1757890410.359,-187.012,-44.434,-276.855,-11.719,0.000
1757890410.363,-93.750,-31.738,-52.246,-6.836,0.000
1757890410.367,-37.109,-45.898,-10.254,-0.977,0.000
1757890410.370,-120.117,-54.199,-270.020,-9.766,0.000
1757890410.374,-187.988,-35.645,-89.844,-18.555,0.000
1757890410.378,-113.281,-31.250,104.492,-9.766,0.000
1757890410.382,-28.809,-37.598,-79.102,3.906,0.000
1757890410.386,-78.613,-36.133,-204.590,-2.441,0.000
1757890410.390,-170.410,-32.715,-3.906,-18.555,0.000
1757890410.394,-138.672,-29.785,85.938,-11.230,0.000
1757890410.398,-39.551,-33.691,-76.660,7.812,0.000
1757890410.402,-59.570,-41.992,-222.656,0.000,0.000
1757890410.406,-160.645,-37.598,-213.867,-15.137,0.000
1757890410.410,-156.250,-33.691,-175.781,-18.555,0.000
1757890410.414,-60.059,-49.805,-317.383,5.371,0.000
1757890410.417,-40.527,-45.410,-256.836,10.254,0.000
1757890410.421,-114.258,-25.879,103.027,-19.043,0.000
1757890410.425,-145.508,-35.156,65.430,-23.926,0.000
1757890410.429,-64.453,-34.668,-28.320,-4.883,0.000
1757890410.433,-5.859,-22.461,52.734,9.766,0.000
1757890410.437,-86.914,-18.066,110.840,-6.348,0.000
1757890410.441,-159.180,-30.273,-13.672,-26.855,0.000
1757890410.445,-91.797,-35.156,-48.340,-14.648,0.000
1757890410.449,-4.883,-31.250,-90.332,6.348,0.000
1757890410.453,-51.270,-33.203,-164.551,-2.930,0.000
1757890410.457,-139.648,-35.156,-144.531,-16.113,0.000
1757890410.460,-118.164,-42.969,-273.438,-5.859,0.000
1757890410.464,-0.488,-28.320,-0.977,0.488,0.000
1757890410.468,-0.488,-27.344,139.648,13.184,0.000
1757890410.472,-123.535,-34.180,-168.945,12.207,0.000
1757890410.476,-127.930,-29.785,-144.043,8.789,0.000
1757890410.480,-12.207,-26.855,140.137,23.926,0.000
1757890410.484,46.875,-19.531,118.652,42.480,0.000
1757890410.488,-60.547,-27.832,-8.301,32.227,0.000
1757890410.492,-112.305,-45.898,-18.066,17.090,0.000
1757890410.496,-9.766,-47.363,18.555,61.035,0.000
1757890410.499,28.320,-31.250,76.660,60.547,0.000
1757890410.503,-58.594,-49.805,-179.688,9.277,0.000
1757890410.507,-102.539,-52.734,-218.750,-11.230,0.000
1757890410.511,-24.902,-15.625,241.211,-55.176,0.000
1757890410.515,32.227,-33.691,254.395,-76.660,0.000
1757890410.519,-32.715,-32.715,259.277,-92.773,0.000
1757890410.523,-89.355,-3.418,334.961,-193.848,0.000
1757890410.527,-75.195,-0.977,367.676,-309.570,0.000
1757890410.531,-17.578,-1.953,384.766,-399.902,0.000
1757890410.535,7.812,2.930,426.270,-507.324,0.000
1757890410.539,-100.586,0.488,499.023,-668.457,0.000
1757890410.542,-110.840,-6.836,510.254,-805.176,0.000
1757890410.546,-24.902,-15.137,541.992,-909.668,0.000
1757890410.550,26.855,17.090,528.809,-996.582,0.000
1757890410.554,-43.457,88.867,613.281,-1000.000,0.000
1757890410.558,-113.770,139.648,672.363,-998.535,0.000
1757890410.562,-51.270,167.969,624.023,-1000.000,0.000
1757890410.566,-4.395,179.688,638.184,-1000.000,0.000
1757890410.570,-61.035,195.312,645.996,-1000.000,0.000
1757890410.574,-116.699,220.215,621.094,-1000.000,0.000
1757890410.578,-67.383,222.656,554.688,-1000.000,0.000
1757890410.582,9.766,202.637,547.363,-1000.000,0.000
1757890410.585,-35.645,209.473,591.309,-1000.000,0.000
1757890410.589,-155.762,230.957,609.375,-1000.000,0.000
1757890410.593,-205.566,228.027,494.629,-1000.000,0.000
1757890410.597,-139.160,230.469,498.047,-1000.000,0.000
1757890410.601,-141.113,235.352,639.648,-1000.000,0.000
1757890410.605,-248.535,215.820,603.027,-1000.000,0.000
1757890410.609,-262.207,208.984,591.309,-1000.000,0.000
1757890410.613,-144.531,209.473,616.699,-1000.000,0.000
1757890410.617,-78.613,198.730,604.004,-1000.000,0.000
1757890410.621,-147.949,187.500,545.410,-1000.000,0.000
1757890410.624,-194.824,181.152,512.695,-1000.000,0.000
1757890410.628,-106.445,182.617,550.293,-1000.000,0.000
1757890410.632,-14.160,172.363,514.160,-1000.000,0.000
1757890410.636,-71.289,145.996,442.871,-999.023,0.000
1757890410.640,-200.684,118.164,304.199,-1000.000,0.000
1757890410.644,-152.832,110.840,354.004,-997.070,0.000
1757890410.648,-27.832,109.863,459.961,-941.406,0.000
1757890410.652,-64.941,84.473,334.961,-871.582,0.000
1757890410.656,-152.832,66.895,310.547,-841.309,0.000
1757890410.659,-136.230,65.918,377.930,-808.594,0.000
1757890410.664,-34.668,44.922,387.695,-729.492,0.000
1757890410.667,-23.438,5.371,255.859,-664.551,0.000
1757890410.671,-130.371,-6.348,187.500,-638.672,0.000
1757890410.675,-149.902,6.348,266.113,-612.305,0.000
1757890410.679,-53.711,-5.371,283.691,-540.039,0.000
1757890410.683,-1.465,-37.598,77.148,-450.195,0.000
1757890410.687,-62.012,-45.898,12.207,-396.484,0.000
1757890410.691,-126.465,-38.086,183.105,-357.422,0.000
1757890410.695,-68.848,-33.691,165.527,-319.336,0.000
1757890410.698,51.758,-32.227,31.738,-257.812,0.000
1757890410.702,40.527,-44.434,83.008,-198.242,0.000
1757890410.706,-59.570,-52.246,214.355,-194.336,0.000
1757890410.710,-65.918,-47.363,137.695,-174.805,0.000
1757890410.714,22.461,-49.316,128.906,-106.934,0.000
1757890410.718,64.453,-51.270,161.621,-68.848,0.000
1757890410.722,-11.230,-45.410,154.785,-56.641,0.000
1757890410.726,-57.617,-60.059,83.496,-22.949,0.000
1757890410.730,9.277,-70.801,10.742,28.320,0.000
1757890410.734,62.988,-58.105,100.098,101.562,0.000
1757890410.738,30.273,-57.617,189.941,128.906,0.000
1757890410.742,-14.648,-69.336,50.781,127.441,0.000
1757890410.745,39.551,-68.359,-101.562,169.434,0.000
1757890410.749,116.211,-53.711,41.504,207.031,0.000
1757890410.753,57.129,-44.922,166.504,220.215,0.000
1757890410.757,-39.551,-51.270,-35.645,221.680,0.000
1757890410.761,3.418,-55.664,-104.004,240.723,0.000
1757890410.765,92.773,-45.410,158.203,260.254,0.000
1757890410.769,44.434,-44.434,142.578,273.926,0.000
1757890410.773,-54.688,-49.805,-35.156,271.973,0.000
1757890410.777,-38.574,-49.316,-199.707,279.785,0.000
1757890410.781,72.754,-36.133,-172.363,318.848,0.000
1757890410.785,76.660,-32.715,-162.598,330.566,0.000
1757890410.788,-43.945,-52.246,-371.582,319.824,0.000
1757890410.792,-78.125,-47.852,-369.141,337.402,0.000
1757890410.796,39.551,-17.090,-0.488,353.027,0.000
1757890410.800,69.824,-20.996,9.277,346.680,0.000
1757890410.804,-56.152,-40.527,-238.770,345.215,0.000
1757890410.808,-116.699,-37.598,-306.152,348.145,0.000
1757890410.812,-30.762,-40.039,-193.359,368.652,0.000
1757890410.816,52.246,-35.645,-254.395,387.695,0.000
1757890410.820,-14.648,-23.926,-365.234,379.883,0.000
1757890410.824,-122.559,-24.414,-402.832,368.652,0.000
1757890410.828,-81.543,-19.043,-320.312,380.371,0.000
1757890410.831,26.367,-23.926,-359.375,396.484,0.000
1757890410.835,-14.648,-30.273,-516.602,391.602,0.000
1757890410.839,-133.789,-10.254,-379.883,360.352,0.000
1757890410.843,-147.461,-1.953,-319.824,332.031,0.000
1757890410.847,-59.570,-8.301,-462.891,346.680,0.000
1757890410.851,-36.133,-15.625,-501.953,358.887,0.000
1757890410.855,-131.348,-20.508,-389.648,352.051,0.000
1757890410.859,-189.453,-21.973,-447.266,340.332,0.000
1757890410.863,-109.375,-30.762,-468.262,346.191,0.000
1757890410.867,-44.434,-28.809,-449.707,341.309,0.000
1757890410.871,-127.930,-13.672,-537.109,293.457,0.000
1757890410.874,-204.590,-2.930,-547.363,254.883,0.000
1757890410.878,-153.320,-22.461,-680.176,268.555,0.000
1757890410.882,-77.148,-24.902,-667.480,281.250,0.000
1757890410.886,-120.117,0.000,-435.547,273.926,0.000
1757890410.890,-209.473,-5.371,-515.137,256.348,0.000
1757890410.894,-182.129,-15.625,-540.039,239.746,0.000
1757890410.898,-88.867,-15.625,-447.754,242.188,0.000
1757890410.902,-90.332,-13.184,-435.059,253.418,0.000
1757890410.906,-175.293,-18.066,-498.047,241.699,0.000
1757890410.910,-195.801,-25.391,-494.629,221.191,0.000
1757890410.914,-81.543,-29.785,-445.312,253.418,0.000
1757890410.917,-22.461,-37.598,-494.141,263.672,0.000
1757890410.921,-113.281,-29.297,-521.973,238.770,0.000
1757890410.925,-158.691,-39.062,-559.082,249.023,0.000
1757890410.929,-74.707,-40.039,-402.344,268.066,0.000
1757890410.933,1.953,-35.156,-320.312,288.086,0.000
1757890410.937,-69.824,-48.828,-462.402,272.949,0.000
1757890410.941,-139.648,-45.410,-475.098,250.000,0.000
1757890410.945,-65.430,-43.457,-316.895,270.996,0.000
1757890410.949,29.785,-53.711,-320.801,293.457,0.000
1757890410.953,15.625,-61.523,-406.738,292.480,0.000
1757890410.956,-51.270,-65.430,-370.117,290.527,0.000
1757890410.960,-28.320,-50.293,-327.148,291.016,0.000
1757890410.964,66.406,-56.641,-352.051,298.340,0.000
1757890410.968,81.055,-75.684,-508.789,318.848,0.000
1757890410.972,-12.695,-62.012,-589.844,299.316,0.000
1757890410.976,-18.066,-47.852,-335.449,274.414,0.000
1757890410.980,89.355,-58.105,-285.645,293.945,0.000
1757890410.984,133.789,-69.336,-354.004,310.059,0.000
1757890410.988,50.293,-82.520,-307.129,293.457,0.000
1757890410.992,-2.441,-86.914,-277.832,277.344,0.000
1757890410.996,65.430,-93.750,-313.965,282.715,0.000
1757890410.999,123.047,-106.934,-336.914,282.715,0.000
1757890411.003,71.777,-104.492,-284.668,270.020,0.000
1757890411.007,-2.441,-106.445,-336.426,242.188,0.000
1757890411.011,27.832,-112.305,-452.637,232.910,0.000
1757890411.015,124.512,-107.910,-446.777,255.371,0.000
1757890411.019,109.375,-99.609,-310.547,257.812,0.000
1757890411.023,5.859,-104.980,-261.230,234.863,0.000
1757890411.027,12.695,-110.840,-386.719,227.051,0.000
1757890411.031,109.863,-112.305,-409.180,245.117,0.000
1757890411.034,120.117,-107.422,-285.156,249.512,0.000
1757890411.038,20.020,-105.957,-304.688,215.332,0.000
1757890411.042,-23.438,-104.492,-388.672,190.918,0.000
1757890411.046,62.012,-98.145,-378.906,206.543,0.000
1757890411.050,119.629,-92.285,-294.434,207.520,0.000
1757890411.054,40.527,-90.332,-304.199,168.457,0.000
1757890411.058,-33.691,-100.098,-473.633,154.297,0.000
1757890411.062,30.273,-100.586,-509.766,169.922,0.000
1757890411.066,115.723,-89.844,-325.684,180.664,0.000
1757890411.070,75.195,-80.566,-330.566,175.781,0.000
1757890411.073,-16.602,-83.008,-430.664,163.086,0.000
1757890411.077,4.883,-76.660,-336.914,153.320,0.000
1757890411.081,107.422,-67.871,-264.648,158.691,0.000
1757890411.085,99.609,-79.102,-356.445,161.133,0.000
1757890411.089,-1.953,-82.031,-385.742,143.555,0.000
1757890411.093,-2.930,-74.219,-294.434,130.859,0.000
1757890411.097,98.145,-68.359,-252.441,141.113,0.000
1757890411.101,114.258,-67.383,-326.660,146.973,0.000
1757890411.105,8.301,-76.660,-394.043,136.719,0.000
1757890411.109,-32.715,-74.707,-331.055,116.699,0.000
1757890411.113,59.082,-59.570,-238.770,119.629,0.000
1757890411.116,111.328,-65.918,-335.938,128.418,0.000
1757890411.120,37.109,-68.359,-450.195,108.398,0.000
1757890411.124,-32.227,-50.781,-305.664,89.355,0.000
1757890411.128,31.738,-56.641,-238.281,91.309,0.000
1757890411.132,129.395,-66.406,-331.055,104.004,0.000
1757890411.136,83.008,-65.430,-357.910,92.773,0.000
1757890411.140,-9.277,-67.383,-314.453,66.406,0.000
1757890411.144,22.461,-66.406,-317.871,64.453,0.000
1757890411.148,106.445,-58.594,-292.969,71.289,0.000
1757890411.152,96.680,-61.523,-342.773,65.430,0.000
1757890411.156,3.418,-68.359,-371.094,51.270,0.000
1757890411.159,0.977,-68.359,-331.543,41.992,0.000
1757890411.163,104.004,-71.777,-441.895,60.059,0.000
1757890411.167,144.531,-65.918,-440.918,66.895,0.000
1757890411.171,62.988,-50.781,-208.984,34.668,0.000
1757890411.175,14.160,-54.199,-294.922,26.367,0.000
1757890411.179,99.609,-48.340,-323.242,41.992,0.000
1757890411.183,174.316,-41.992,-223.633,52.246,0.000
1757890411.187,111.816,-54.199,-216.797,35.645,0.000
1757890411.191,16.113,-65.918,-288.574,3.906,0.000
1757890411.195,67.383,-62.500,-357.910,8.301,0.000
1757890411.199,164.062,-53.223,-321.289,24.902,0.000
1757890411.202,123.047,-53.711,-285.645,24.902,0.000
1757890411.206,30.273,-52.246,-349.121,9.766,0.000
1757890411.210,39.551,-56.152,-405.762,1.953,0.000
1757890411.214,142.578,-53.223,-254.883,9.277,0.000
1757890411.218,159.180,-47.852,-185.547,9.277,0.000
1757890411.222,56.641,-61.035,-330.078,-8.789,0.000
1757890411.226,27.344,-59.082,-361.816,-26.855,0.000
1757890411.230,127.441,-51.270,-211.426,-4.883,0.000
1757890411.234,183.105,-53.223,-236.328,4.395,0.000
1757890411.238,79.590,-52.734,-268.555,-24.414,0.000
1757890411.242,6.836,-52.246,-288.574,-25.879,0.000
1757890411.245,79.102,-57.129,-310.547,-15.137,0.000
1757890411.249,145.508,-50.781,-270.020,-10.742,0.000
1757890411.253,80.566,-56.641,-462.402,-12.695,0.000
1757890411.257,-8.789,-61.523,-458.984,-50.293,0.000
1757890411.261,28.809,-30.762,-162.109,-59.082,0.000
1757890411.265,124.023,-28.809,-197.754,-37.109,0.000
1757890411.269,90.332,-42.480,-274.902,-61.035,0.000
1757890411.273,-6.348,-40.527,-225.586,-80.078,0.000
1757890411.277,-4.883,-42.969,-201.172,-78.613,0.000
1757890411.281,89.355,-50.293,-236.816,-64.453,0.000
1757890411.285,102.539,-52.734,-245.117,-59.082,0.000
1757890411.288,-7.324,-47.363,-235.352,-75.195,0.000
1757890411.292,-47.363,-49.805,-270.020,-73.242,0.000
1757890411.296,28.320,-52.246,-308.105,-62.500,0.000
1757890411.300,80.078,-54.199,-365.234,-54.199,0.000
1757890411.304,-0.977,-51.270,-262.695,-59.570,0.000
1757890411.308,-78.613,-50.781,-237.305,-77.148,0.000
1757890411.312,-20.508,-55.664,-359.375,-68.359,0.000
1757890411.316,59.570,-51.758,-307.617,-53.223,0.000
1757890411.320,15.625,-43.457,-163.086,-58.594,0.000
1757890411.324,-80.078,-44.922,-229.004,-65.918,0.000
1757890411.327,-69.824,-50.293,-289.551,-63.965,0.000
1757890411.331,30.762,-43.457,-224.121,-51.270,0.000
1757890411.335,16.602,-42.480,-221.680,-51.758,0.000
1757890411.339,-103.027,-47.852,-277.832,-64.941,0.000
1757890411.343,-117.188,-53.223,-436.523,-46.387,0.000
1757890411.347,-23.438,-49.805,-438.965,-27.832,0.000
1757890411.351,5.859,-36.621,-131.836,-45.410,0.000
1757890411.355,-74.219,-41.504,-185.059,-45.410,0.000
1757890411.359,-139.160,-42.969,-261.230,-41.992,0.000
1757890411.362,-88.867,-38.574,-217.285,-50.293,0.000
1757890411.367,-32.227,-44.922,-234.375,-42.480,0.000
1757890411.370,-95.215,-55.664,-248.047,-33.691,0.000
1757890411.374,-156.738,-61.035,-294.434,-26.367,0.000
1757890411.378,-98.633,-59.570,-222.656,-5.859,0.000
1757890411.382,-14.648,-53.711,-194.824,4.395,0.000
1757890411.386,-53.223,-51.758,-297.852,-5.859,0.000
1757890411.390,-155.273,-51.758,-348.633,-21.973,0.000
1757890411.394,-151.855,-39.062,-190.430,-31.250,0.000
1757890411.398,-56.152,-35.156,-74.219,-7.812,0.000
1757890411.402,-54.688,-51.270,-224.609,2.930,0.000
1757890411.405,-148.926,-49.805,-298.340,-13.184,0.000
1757890411.409,-165.039,-30.273,-201.660,-16.113,0.000
1757890411.414,-77.148,-23.438,-89.844,9.277,0.000
1757890411.418,-48.340,-44.434,-161.133,18.066,0.000
1757890411.421,-145.996,-56.641,-337.402,1.465,0.000
1757890411.425,-200.684,-39.551,-214.844,-6.836,0.000
1757890411.429,-122.559,-34.668,-125.000,5.859,0.000
1757890411.433,-57.129,-45.410,-286.621,24.414,0.000
1757890411.437,-126.465,-42.480,-384.766,20.996,0.000
1757890411.441,-210.938,-36.133,-218.262,4.883,0.000
1757890411.445,-167.969,-33.691,-158.203,10.742,0.000
1757890411.449,-76.660,-38.086,-225.586,33.691,0.000
1757890411.452,-101.074,-32.715,-160.645,24.902,0.000
1757890411.456,-197.754,-23.926,-76.172,0.000,0.000
1757890411.461,-192.871,-28.809,-107.422,2.930,0.000
1757890411.464,-94.238,-27.832,-167.969,19.043,0.000
1757890411.468,-73.730,-23.438,-113.281,30.762,0.000
1757890411.472,-174.316,-16.113,-12.207,16.113,0.000
1757890411.476,-221.191,-21.973,-135.742,-0.977,0.000
1757890411.480,-139.648,-32.715,-270.020,3.906,0.000
1757890411.484,-98.633,-27.344,-248.535,16.113,0.000
1757890411.488,-170.898,-17.090,-151.367,-2.930,0.000
1757890411.492,-229.492,-22.949,-262.207,-16.113,0.000
1757890411.496,-172.852,-26.855,-227.051,-0.488,0.000
1757890411.499,-96.680,-26.367,49.316,9.277,0.000
1757890411.503,-141.602,-24.902,53.223,8.789,0.000
1757890411.507,-239.258,-19.043,-251.465,-9.766,0.000
1757890411.511,-221.680,-20.508,-460.938,-12.695,0.000
1757890411.515,-113.281,-3.906,-59.082,-9.766,0.000
1757890411.519,-132.812,1.465,67.871,-16.113,0.000
1757890411.523,-254.883,-2.930,-114.746,-41.504,0.000
1757890411.527,-268.066,-4.395,-281.738,-61.035,0.000
1757890411.531,-165.039,1.465,-257.812,-40.527,0.000
1757890411.535,-146.973,24.414,-177.734,-49.316,0.000
1757890411.539,-252.930,19.043,-394.043,-82.031,0.000
1757890411.542,-288.086,20.508,-360.840,-89.355,0.000
1757890411.546,-199.219,41.016,52.734,-85.449,0.000
1757890411.550,-149.414,32.227,40.039,-86.914,0.000
1757890411.554,-232.422,32.227,-152.832,-95.703,0.000
1757890411.558,-310.059,42.480,-74.219,-122.070,0.000
1757890411.562,-252.930,46.875,96.680,-125.488,0.000
1757890411.566,-155.762,35.156,28.320,-85.449,0.000
1757890411.570,-191.406,26.367,-131.348,-86.426,0.000
1757890411.574,-285.156,27.832,-240.723,-126.953,0.000
1757890411.578,-250.977,40.039,-164.062,-126.953,0.000
1757890411.582,-143.066,42.480,-42.969,-106.445,0.000
1757890411.585,-160.156,16.602,-238.770,-100.098,0.000
1757890411.589,-264.648,30.273,-207.520,-116.211,0.000
1757890411.593,-282.227,49.805,45.898,-138.672,0.000
1757890411.597,-171.387,42.969,10.742,-128.418,0.000
1757890411.601,-120.117,51.270,-102.051,-120.117,0.000
1757890411.605,-232.910,56.152,41.992,-134.277,0.000
1757890411.609,-275.879,44.434,72.266,-119.629,0.000
1757890411.613,-175.781,43.457,-13.672,-104.492,0.000
1757890411.617,-120.605,50.293,-3.418,-103.027,0.000
1757890411.621,-192.871,51.270,-69.336,-105.957,0.000
1757890411.625,-261.719,59.082,-171.387,-134.766,0.000
1757890411.628,-206.055,54.688,-320.801,-129.883,0.000
1757890411.632,-108.398,48.828,-232.422,-91.309,0.000
1757890411.636,-125.000,68.359,151.367,-91.797,0.000
1757890411.640,-219.238,77.148,91.309,-108.887,0.000
1757890411.644,-214.844,71.289,-129.883,-111.816,0.000
1757890411.648,-102.051,66.406,-60.059,-88.867,0.000
1757890411.652,-97.168,67.383,141.602,-75.195,0.000
1757890411.656,-205.078,58.594,56.152,-82.031,0.000
1757890411.660,-214.844,50.781,-4.883,-73.242,0.000
1757890411.664,-114.258,59.570,101.562,-54.688,0.000
1757890411.668,-82.520,61.035,104.980,-51.758,0.000
1757890411.671,-169.922,55.664,14.160,-75.684,0.000
1757890411.675,-224.121,52.246,-157.715,-73.242,0.000
1757890411.679,-141.113,58.105,18.555,-64.453,0.000
1757890411.683,-53.223,61.523,230.469,-54.688,0.000
1757890411.687,-116.699,48.828,50.293,-50.293,0.000
1757890411.691,-196.289,48.340,7.324,-43.945,0.000
1757890411.695,-150.879,51.758,175.781,-23.438,0.000
1757890411.699,-58.594,43.945,136.230,-10.254,0.000
1757890411.703,-80.078,35.156,-28.320,-11.719,0.000
1757890411.707,-182.129,39.551,18.555,-36.621,0.000
1757890411.710,-168.945,38.574,113.770,-40.039,0.000
1757890411.714,-62.012,31.738,108.887,-19.531,0.000
1757890411.718,-62.012,24.902,-154.297,-7.324,0.000
1757890411.722,-157.715,21.973,-234.375,-7.324,0.000
1757890411.726,-185.547,37.109,134.766,-20.020,0.000
1757890411.730,-99.121,35.156,157.227,-19.043,0.000
1757890411.734,-36.133,27.344,42.480,0.000,0.000
1757890411.738,-119.141,26.367,76.172,-4.883,0.000
1757890411.742,-189.453,23.438,161.621,-21.484,0.000
1757890411.746,-102.051,25.879,112.793,4.395,0.000
1757890411.750,-14.160,21.484,103.027,24.902,0.000
1757890411.753,-79.590,25.879,145.508,7.812,0.000
1757890411.757,-172.852,26.855,90.820,-10.742,0.000
1757890411.761,-136.230,15.625,54.688,1.953,0.000
1757890411.765,-32.715,4.883,-80.078,32.715,0.000
1757890411.769,-44.434,20.508,24.414,23.438,0.000
1757890411.773,-134.766,28.809,194.824,-1.465,0.000
1757890411.777,-137.695,11.719,85.938,-4.883,0.000
1757890411.781,-39.551,8.301,76.660,18.555,0.000
1757890411.785,0.488,18.066,156.250,41.504,0.000
1757890411.789,-90.820,19.531,158.203,17.578,0.000
1757890411.792,-143.066,11.230,15.625,-6.836,0.000
1757890411.796,-66.895,11.719,18.555,8.301,0.000
1757890411.800,1.465,20.996,156.738,26.855,0.000
1757890411.804,-58.105,20.020,166.016,16.602,0.000
1757890411.808,-136.230,1.953,-141.602,17.090,0.000
1757890411.812,-84.961,-3.418,-263.184,32.715,0.000
1757890411.816,4.883,10.742,73.242,31.250,0.000
1757890411.820,-61.035,2.441,57.617,19.043,0.000
1757890411.824,-174.316,-10.254,-75.684,11.230,0.000
1757890411.827,-132.812,-1.953,21.484,2.930,0.000
1757890411.831,-6.348,6.836,183.105,8.301,0.000
1757890411.836,-12.207,-6.348,115.234,0.977,0.000
1757890411.839,-129.395,-11.719,77.148,-29.785,0.000
1757890411.843,-132.812,-0.488,125.000,-20.996,0.000
1757890411.847,-17.578,-7.324,159.180,20.508,0.000
1757890411.851,26.367,-15.137,126.465,32.227,0.000
1757890411.855,-80.566,-20.996,-105.957,12.207,0.000
1757890411.859,-163.574,-16.602,-72.266,-13.184,0.000
1757890411.863,-87.402,-3.418,177.246,-12.207,0.000
1757890411.867,-2.441,-9.277,78.613,6.348,0.000
1757890411.871,-61.035,-21.484,-163.086,10.742,0.000
1757890411.874,-125.977,-10.742,6.348,4.883,0.000
1757890411.878,-93.750,-4.395,206.055,-2.930,0.000
1757890411.882,-17.090,-21.484,32.227,13.672,0.000
1757890411.886,-27.344,-23.438,-1.465,15.137,0.000
1757890411.890,-120.605,-13.184,142.578,-12.207,0.000
1757890411.894,-124.023,-15.137,126.953,-18.555,0.000
1757890411.898,-11.230,-23.926,42.969,14.648,0.000
1757890411.902,-9.766,-24.414,-131.836,26.367,0.000
1757890411.906,-124.023,-18.555,-188.477,-7.324,0.000
1757890411.910,-133.301,-16.602,-16.602,-6.836,0.000
1757890411.914,-42.969,-30.273,-187.012,27.344,0.000
1757890411.917,-4.395,-30.762,-228.027,30.273,0.000
1757890411.921,-75.195,-14.648,139.160,5.859,0.000
1757890411.925,-136.719,-27.344,46.875,7.812,0.000
1757890411.929,-72.266,-26.367,63.965,5.371,0.000
1757890411.933,0.488,-19.043,145.996,4.883,0.000
1757890411.937,-63.965,-22.949,133.301,-4.883,0.000
1757890411.941,-131.348,-25.391,47.852,-13.672,0.000
1757890411.945,-83.008,-18.555,-6.348,-6.348,0.000
1757890411.949,7.324,-19.531,23.926,2.441,0.000
1757890411.953,-5.371,-14.160,75.195,-2.441,0.000
1757890411.957,-96.680,-11.230,48.340,-22.949,0.000
1757890411.960,-92.773,-24.414,-183.594,-7.324,0.000
1757890411.964,14.648,-12.695,22.461,15.137,0.000
1757890411.968,44.434,-14.160,200.684,21.484,0.000
1757890411.972,-63.965,-32.715,-4.395,5.371,0.000
1757890411.976,-111.328,-29.297,-62.988,-24.414,0.000
1757890411.980,-18.066,-21.973,79.590,-8.789,0.000
1757890411.984,48.340,-24.414,96.191,17.578,0.000
1757890411.988,-32.715,-26.367,21.973,-7.324,0.000
1757890411.992,-112.305,-30.273,1.953,-38.574,0.000
1757890411.996,-43.945,-31.250,8.789,-25.879,0.000
1757890412.000,47.852,-31.250,61.035,2.930,0.000
1757890412.003,-2.930,-44.434,-184.570,-6.836,0.000
1757890412.007,-95.215,-37.109,-308.105,-20.020,0.000
1757890412.011,-60.059,-17.090,102.051,-20.020,0.000
1757890412.015,19.531,-25.879,128.906,-7.812,0.000
1757890412.019,8.789,-33.203,-21.484,1.465,0.000
1757890412.023,-87.402,-32.715,17.090,-19.043,0.000
1757890412.027,-98.633,-28.809,126.465,-31.250,0.000
1757890412.031,-13.184,-28.320,65.918,-29.785,0.000
1757890412.035,4.395,-32.715,-50.781,-30.273,0.000
1757890412.039,-91.797,-37.598,-23.438,-51.270,0.000
1757890412.042,-130.859,-40.527,-20.020,-43.457,0.000
1757890412.046,-20.996,-47.363,-47.363,-8.789,0.000
1757890412.050,24.902,-50.781,-147.949,-1.465,0.000
1757890412.054,-79.590,-40.527,-50.781,-43.457,0.000
1757890412.058,-147.461,-25.391,151.367,-69.336,0.000
1757890412.062,-83.496,-17.090,21.484,-52.246,0.000
1757890412.066,7.812,-33.691,0.977,-35.645,0.000
1757890412.070,-13.672,-30.762,131.836,-35.156,0.000
1757890412.074,-96.191,-30.273,104.980,-40.039,0.000
1757890412.078,-84.961,-49.316,-14.160,-33.203,0.000
1757890412.082,2.930,-46.387,32.715,-25.391,0.000
1757890412.085,5.859,-37.598,121.094,-20.996,0.000
1757890412.089,-91.797,-37.598,-53.223,-38.086,0.000
1757890412.093,-130.859,-41.504,-305.664,-51.758,0.000
1757890412.097,-46.387,-41.992,-339.844,-37.109,0.000
1757890412.101,21.484,-25.391,35.156,-18.066,0.000
1757890412.105,-43.945,-20.020,105.957,-23.926,0.000
1757890412.109,-100.098,-24.414,-45.410,-30.273,0.000
1757890412.113,-28.320,-32.715,29.785,-26.855,0.000
1757890412.117,29.297,-41.992,131.836,-36.621,0.000
1757890412.121,-53.711,-40.527,70.801,-54.688,0.000
1757890412.124,-130.371,-44.434,-89.355,-57.617,0.000
1757890412.128,-68.848,-43.945,-12.695,-45.410,0.000
1757890412.132,24.902,-36.133,131.836,-29.297,0.000
1757890412.136,-10.742,-36.133,-19.043,-39.551,0.000
1757890412.140,-117.676,-36.133,-270.996,-59.570,0.000
1757890412.144,-102.051,-26.367,-89.355,-57.617,0.000
1757890412.148,11.719,-29.297,95.215,-33.691,0.000
1757890412.152,25.391,-32.715,-84.473,-29.297,0.000
1757890412.156,-78.613,-20.020,-95.703,-58.105,0.000
1757890412.159,-102.539,-10.254,46.875,-63.477,0.000
1757890412.164,6.348,-12.207,111.816,-43.457,0.000
1757890412.167,48.340,-28.320,-16.113,-28.809,0.000
1757890412.171,-34.180,-43.457,-84.961,-32.227,0.000
1757890412.175,-98.633,-33.203,81.543,-59.082,0.000
1757890412.179,-50.781,-28.320,106.445,-62.988,0.000
1757890412.183,17.578,-43.457,-165.527,-47.852,0.000
1757890412.187,-35.156,-44.434,-367.676,-46.875,0.000
1757890412.191,-120.117,-34.668,-146.973,-64.941,0.000
1757890412.195,-77.148,-32.227,51.270,-62.012,0.000
1757890412.199,23.438,-38.086,-29.297,-33.691,0.000
1757890412.202,3.418,-38.086,-192.383,-31.250,0.000
1757890412.206,-94.238,-39.062,-91.309,-62.988,0.000
1757890412.210,-101.074,-39.551,26.855,-61.523,0.000
1757890412.214,-10.742,-37.109,-7.812,-40.527,0.000
1757890412.218,28.809,-42.480,5.859,-42.480,0.000
1757890412.222,-68.359,-32.227,54.688,-56.152,0.000
1757890412.226,-133.789,-28.320,8.301,-71.289,0.000
1757890412.230,-42.480,-42.969,-178.223,-57.617,0.000
1757890412.234,32.227,-32.227,-111.328,-37.109,0.000
1757890412.238,-33.203,-17.578,91.797,-48.340,0.000
1757890412.242,-100.586,-29.297,-28.809,-49.805,0.000
1757890412.245,-59.570,-50.781,-225.586,-36.621,0.000
1757890412.249,11.230,-49.316,-16.113,-48.828,0.000
1757890412.253,-19.531,-38.574,133.789,-60.059,0.000
1757890412.257,-104.004,-37.598,-118.164,-62.500,0.000
1757890412.261,-84.961,-34.180,-268.066,-55.176,0.000
1757890412.265,15.625,-26.367,16.113,-42.480,0.000
1757890412.269,14.648,-25.391,125.977,-36.133,0.000
1757890412.273,-80.566,-31.250,-75.195,-43.945,0.000
1757890412.277,-99.121,-31.738,-238.281,-48.340,0.000
1757890412.281,3.906,-27.344,-182.129,-21.484,0.000
1757890412.285,49.805,-35.156,-130.371,1.465,0.000
1757890412.288,-60.547,-57.617,-357.422,-9.277,0.000
1757890412.292,-140.137,-56.152,-312.988,-27.344,0.000
1757890412.296,-51.758,-30.273,123.047,-43.457,0.000
1757890412.300,39.062,-25.879,70.312,-45.898,0.000
1757890412.304,-33.691,-30.762,-166.504,-29.297,0.000
1757890412.308,-117.676,-24.414,-82.520,-37.109,0.000
1757890412.312,-62.012,-18.555,100.098,-57.129,0.000
1757890412.316,30.762,-20.020,-51.270,-39.062,0.000
1757890412.320,-5.371,-25.879,-179.199,-26.855,0.000
1757890412.324,-99.609,-31.250,-222.656,-41.016,0.000
1757890412.328,-85.449,-41.992,-174.316,-36.133,0.000
1757890412.331,-3.906,-48.828,-59.082,-31.738,0.000
1757890412.335,-23.438,-54.199,-246.094,-42.969,0.000
1757890412.339,-118.164,-42.969,-108.398,-67.871,0.000
1757890412.343,-118.164,-33.203,108.887,-73.242,0.000
1757890412.347,-15.625,-45.898,-92.773,-44.434,0.000
1757890412.351,17.578,-43.945,-166.016,-34.668,0.000
1757890412.355,-71.289,-40.527,59.082,-44.922,0.000
1757890412.359,-124.512,-46.875,78.613,-51.758,0.000
1757890412.363,-49.316,-49.805,-77.148,-48.340,0.000
1757890412.367,19.043,-42.480,-140.137,-55.176,0.000
1757890412.371,-37.109,-33.691,-168.457,-58.105,0.000
1757890412.374,-111.816,-30.273,-194.336,-49.805,0.000
1757890412.378,-75.684,-40.039,-355.957,-42.480,0.000
1757890412.382,10.742,-31.738,-336.914,-37.598,0.000
1757890412.386,-2.441,-9.277,64.453,-32.715,0.000
1757890412.390,-80.566,-20.508,49.805,-26.855,0.000
1757890412.394,-77.637,-28.320,-128.418,-20.508,0.000
1757890412.398,21.484,-24.902,-24.414,4.883,0.000
1757890412.402,48.828,-31.738,115.234,2.930,0.000
1757890412.406,-51.758,-45.410,-16.113,-27.344,0.000
1757890412.410,-106.934,-37.598,-157.227,-44.434,0.000
1757890412.414,-18.555,-20.996,-46.875,-34.180,0.000
1757890412.417,45.410,-21.973,-86.914,-20.996,0.000
1757890412.421,-34.668,-39.551,-256.348,-31.250,0.000
1757890412.425,-99.121,-43.457,-338.867,-31.738,0.000
1757890412.429,-45.410,-29.297,-225.586,-22.461,0.000
1757890412.433,38.086,-27.344,60.547,-10.254,0.000
1757890412.437,-20.996,-34.668,-47.363,-29.297,0.000
1757890412.441,-131.348,-38.574,-214.844,-61.523,0.000
1757890412.445,-92.773,-42.480,-1.953,-52.246,0.000
1757890412.449,9.766,-42.480,114.258,-27.344,0.000
1757890412.453,-6.348,-49.805,-132.324,-28.320,0.000
1757890412.456,-108.887,-44.922,-209.473,-47.363,0.000
1757890412.460,-137.207,-35.156,-9.277,-60.547,0.000
1757890412.464,-39.062,-39.062,-95.703,-54.688,0.000
1757890412.468,5.371,-49.805,-324.219,-32.227,0.000
1757890412.472,-93.750,-46.387,-384.277,-34.668,0.000
1757890412.476,-121.094,-23.926,-57.129,-49.805,0.000
1757890412.480,-10.254,-20.996,54.199,-24.414,0.000
1757890412.484,40.527,-17.578,-92.773,-26.855,0.000
1757890412.488,-47.852,-13.184,-72.266,-44.434,0.000
1757890412.492,-104.980,-28.809,48.340,-28.320,0.000
1757890412.496,-41.992,-31.738,13.184,-19.043,0.000
1757890412.499,22.461,-25.391,-104.004,-26.367,0.000
1757890412.503,3.418,-19.043,-30.273,-18.555,0.000
1757890412.507,-78.613,-31.250,21.973,-23.438,0.000
1757890412.511,-84.473,-57.129,-168.457,-28.320,0.000
1757890412.515,4.395,-61.523,-299.805,-15.625,0.000
1757890412.519,-2.930,-43.457,-154.297,-32.227,0.000
1757890412.523,-82.520,-31.738,66.406,-54.688,0.000
1757890412.527,-101.074,-44.434,-83.496,-59.570,0.000
1757890412.531,-22.949,-39.062,-173.340,-48.340,0.000
1757890412.534,15.137,-28.809,53.223,-45.898,0.000
1757890412.538,-67.871,-38.086,-55.664,-53.223,0.000
1757890412.542,-109.863,-37.109,-313.965,-44.922,0.000
1757890412.546,-27.832,-27.832,-231.445,-18.066,0.000
1757890412.550,39.551,-26.855,-7.324,-20.020,0.000
1757890412.554,-20.508,-27.344,-12.695,-35.645,0.000
1757890412.558,-105.469,-36.621,-304.199,-27.344,0.000
1757890412.562,-73.730,-42.969,-377.930,-19.043,0.000
1757890412.566,16.602,-40.527,-163.086,-16.602,0.000
1757890412.570,-5.371,-41.992,-40.527,-24.902,0.000
1757890412.573,-123.047,-43.945,-203.125,-38.086,0.000
1757890412.577,-128.418,-41.504,-211.426,-48.340,0.000
1757890412.581,-20.508,-36.621,53.223,-55.176,0.000
1757890412.585,-7.324,-41.016,24.902,-39.062,0.000
1757890412.589,-97.168,-42.480,-144.531,-44.434,0.000
1757890412.593,-121.582,-36.133,-243.652,-51.758,0.000
1757890412.597,-30.762,-29.785,-182.617,-39.062,0.000
1757890412.601,4.395,-33.691,-68.848,-33.691,0.000
1757890412.605,-76.660,-48.828,-215.332,-43.945,0.000
1757890412.609,-140.137,-43.945,-270.508,-59.082,0.000
1757890412.613,-72.266,-24.414,-65.918,-59.082,0.000
1757890412.616,6.836,-18.066,-29.297,-57.617,0.000
1757890412.620,-56.641,-27.344,-249.023,-54.199,0.000
1757890412.624,-126.465,-20.020,-176.270,-48.828,0.000
1757890412.628,-67.383,-12.695,44.434,-35.156,0.000
1757890412.632,51.270,-21.973,-44.922,-5.859,0.000
1757890412.636,34.180,-28.320,-131.836,5.371,0.000
1757890412.640,-81.055,-25.879,-65.918,-12.207,0.000
1757890412.644,-80.078,-19.043,-35.156,-20.996,0.000
1757890412.648,13.672,-20.020,-79.590,-20.020,0.000
1757890412.652,16.113,-34.668,-247.559,-17.090,0.000
1757890412.656,-70.312,-37.109,-226.562,-27.344,0.000
1757890412.660,-107.422,-35.645,-191.406,-46.875,0.000
1757890412.663,-54.199,-43.945,-360.840,-62.988,0.000
1757890412.667,-1.953,-35.645,-332.520,-53.223,0.000
1757890412.671,-42.480,-12.207,41.504,-41.992,0.000
1757890412.675,-96.680,-24.902,29.297,-49.316,0.000
1757890412.679,-61.035,-43.457,-135.254,-45.410,0.000
1757890412.683,15.137,-36.621,-52.246,-38.086,0.000
1757890412.687,-19.043,-29.297,60.059,-63.965,0.000
1757890412.691,-122.070,-21.484,-26.367,-89.844,0.000
1757890412.695,-114.746,-24.414,-161.133,-79.590,0.000
1757890412.699,-4.395,-29.297,-220.703,-53.223,0.000
1757890412.703,18.555,-27.832,-155.273,-28.809,0.000
1757890412.706,-89.844,-36.133,-174.805,-35.156,0.000
1757890412.710,-129.883,-46.387,-304.688,-45.410,0.000
1757890412.714,-19.531,-27.344,-41.016,-32.227,0.000
1757890412.718,37.598,-28.809,139.160,-18.066,0.000
1757890412.722,-51.270,-45.410,-104.492,-22.949,0.000
1757890412.726,-105.957,-34.668,-210.449,-40.527,0.000
1757890412.730,-22.949,-21.973,48.340,-36.621,0.000
1757890412.734,51.270,-29.785,105.469,-20.996,0.000
1757890412.738,-13.672,-45.898,-100.098,-24.414,0.000
1757890412.742,-82.031,-37.109,-235.840,-28.320,0.000
1757890412.746,-48.340,-32.227,-208.496,-27.344,0.000
1757890412.749,42.480,-43.457,-183.105,-3.906,0.000
1757890412.753,11.230,-49.805,-363.281,-5.371,0.000
1757890412.757,-99.609,-50.781,-391.602,-43.457,0.000
1757890412.761,-81.543,-38.086,-54.688,-48.340,0.000
1757890412.765,6.348,-45.898,-118.164,-36.133,0.000
1757890412.769,-3.418,-46.875,-230.469,-52.246,0.000
1757890412.773,-101.074,-35.645,-32.715,-73.730,0.000
1757890412.777,-120.605,-34.668,60.547,-76.660,0.000
1757890412.781,-40.039,-36.621,-10.742,-77.148,0.000
1757890412.785,8.301,-34.668,-120.117,-63.965,0.000
1757890412.788,-68.848,-33.691,-113.281,-64.941,0.000
1757890412.792,-128.418,-44.922,-162.109,-71.777,0.000
1757890412.796,-59.570,-45.410,-254.883,-67.871,0.000
1757890412.800,-0.977,-44.922,-275.879,-57.617,0.000
1757890412.804,-59.082,-41.992,-64.453,-65.918,0.000
1757890412.808,-124.512,-37.109,101.562,-67.383,0.000
1757890412.812,-80.078,-39.551,-57.129,-39.062,0.000
1757890412.816,0.000,-41.016,-111.816,-41.992,0.000
1757890412.820,-26.855,-40.527,-85.938,-57.617,0.000
1757890412.824,-104.980,-35.645,-16.602,-54.199,0.000
1757890412.828,-80.078,-39.062,-90.820,-36.133,0.000
1757890412.831,20.020,-39.062,-121.582,-28.320,0.000
1757890412.835,15.625,-30.273,66.895,-39.551,0.000
1757890412.839,-87.891,-40.039,-88.867,-45.410,0.000
1757890412.843,-114.746,-57.129,-379.395,-42.969,0.000
1757890412.847,-39.551,-56.152,-365.723,-17.090,0.000
1757890412.851,17.578,-39.062,-14.160,-24.414,0.000
1757890412.855,-48.828,-40.527,16.113,-49.316,0.000
1757890412.859,-108.398,-40.039,-147.461,-60.547,0.000
1757890412.863,-53.711,-31.250,-62.012,-60.059,0.000
1757890412.867,23.926,-26.367,96.680,-55.176,0.000
1757890412.870,-11.230,-29.785,13.672,-42.969,0.000
1757890412.874,-86.914,-34.180,-182.129,-23.926,0.000
1757890412.878,-43.945,-26.855,-52.734,-11.719,0.000
1757890412.882,27.832,-32.227,74.219,-21.484,0.000
1757890412.886,1.465,-41.016,-142.578,-36.133,0.000
1757890412.890,-85.449,-46.875,-317.383,-35.156,0.000
1757890412.894,-78.613,-36.133,-92.285,-22.949,0.000
1757890412.898,19.043,-23.926,154.785,-8.789,0.000
1757890412.902,37.598,-29.297,20.508,-11.719,0.000
1757890412.905,-60.547,-25.391,-92.285,-33.691,0.000
1757890412.909,-97.168,-17.090,31.250,-39.551,0.000
1757890412.913,6.836,-21.973,125.977,-11.719,0.000
1757890412.917,86.914,-25.391,9.766,4.395,0.000
1757890412.921,1.953,-19.531,-70.312,-19.043,0.000
1757890412.925,-86.426,-13.672,69.336,-35.645,0.000
1757890412.929,-18.066,-18.066,65.918,-14.160,0.000
1757890412.933,63.965,-22.949,-89.355,1.465,0.000
1757890412.937,21.973,-16.602,-195.801,-4.883,0.000
1757890412.941,-88.867,-12.207,-208.984,-28.809,0.000
1757890412.945,-74.707,-16.113,-66.406,-43.945,0.000
1757890412.948,20.508,-18.555,-168.457,-19.531,0.000
1757890412.952,24.414,-6.836,-185.547,-16.113,0.000
1757890412.956,-51.270,6.836,125.488,-34.180,0.000
1757890412.960,-97.168,-16.113,63.965,-38.086,0.000
1757890412.964,-24.902,-30.762,-7.812,-28.320,0.000
1757890412.968,27.832,-18.066,30.762,-22.461,0.000
1757890412.972,-64.453,-14.648,103.516,-50.293,0.000
1757890412.976,-125.000,-9.766,38.086,-72.754,0.000
1757890412.980,-54.688,-12.695,-125.977,-60.547,0.000
1757890412.984,12.695,-16.602,-80.566,-31.250,0.000
1757890412.988,-46.875,-15.625,64.453,-38.086,0.000
1757890412.991,-122.559,-26.367,2.930,-44.434,0.000
1757890412.995,-89.355,-31.250,-175.293,-35.645,0.000
1757890412.999,-17.578,-26.367,-14.648,-47.852,0.000
1757890413.003,-39.062,-27.832,139.648,-52.246,0.000
1757890413.007,-131.348,-33.691,-72.266,-47.363,0.000
1757890413.011,-108.887,-30.273,-127.930,-38.086,0.000
1757890413.015,-15.137,-36.621,96.680,-25.879,0.000
1757890413.019,-16.113,-46.387,107.910,-37.598,0.000
1757890413.023,-123.535,-43.945,-94.727,-60.059,0.000
1757890413.027,-162.598,-38.086,-235.352,-61.523,0.000
1757890413.031,-63.965,-28.320,-202.148,-47.363,0.000
1757890413.034,-26.855,-26.855,-175.293,-55.664,0.000
1757890413.038,-95.215,-38.574,-357.910,-49.805,0.000
1757890413.042,-146.484,-49.805,-418.945,-47.852,0.000
1757890413.046,-82.031,-33.691,-16.113,-50.781,0.000
1757890413.050,-7.812,-32.227,93.262,-34.180,0.000
1757890413.054,-80.566,-34.668,-87.891,-59.570,0.000
1757890413.058,-176.270,-34.180,-110.840,-80.566,0.000
1757890413.062,-130.371,-42.969,-7.324,-71.777,0.000
1757890413.066,-24.902,-43.457,3.906,-39.062,0.000
1757890413.070,-30.762,-42.480,-101.074,-18.066,0.000
1757890413.074,-126.953,-41.016,-225.586,-57.129,0.000
1757890413.077,-148.438,-36.133,-194.824,-83.496,0.000
1757890413.081,-52.734,-32.227,-55.664,-59.570,0.000
1757890413.085,-42.969,-47.363,-208.496,-41.504,0.000
1757890413.089,-128.418,-33.691,-63.965,-48.828,0.000
1757890413.093,-157.715,-20.508,100.098,-48.828,0.000
1757890413.097,-61.035,-29.785,-62.012,-41.504,0.000
1757890413.101,4.395,-24.902,-87.891,-43.945,0.000
1757890413.105,-78.613,-23.438,40.527,-54.199,0.000
1757890413.109,-143.066,-26.367,62.500,-58.105,0.000
1757890413.113,-87.891,-31.738,-90.332,-54.199,0.000
1757890413.117,0.977,-40.039,-141.602,-26.855,0.000
1757890413.120,-49.805,-51.270,-121.094,-37.109,0.000
1757890413.124,-157.715,-44.922,-192.871,-73.242,0.000
1757890413.128,-140.137,-41.016,-335.938,-68.848,0.000
1757890413.132,-38.574,-32.227,-297.363,-57.617,0.000
1757890413.136,-27.344,-12.207,87.402,-63.477,0.000
1757890413.140,-102.051,-21.484,59.570,-57.617,0.000
1757890413.144,-104.980,-39.062,-138.184,-40.039,0.000
1757890413.148,-11.230,-30.273,-15.137,-27.832,0.000
1757890413.152,10.742,-23.926,67.383,-36.133,0.000
1757890413.156,-91.797,-23.926,-176.758,-57.129,0.000
1757890413.160,-129.395,-19.043,-222.656,-71.777,0.000
1757890413.163,-41.992,-28.320,-8.301,-64.941,0.000
1757890413.167,19.043,-32.227,-98.145,-35.156,0.000
1757890413.171,-47.363,-32.715,-263.184,-26.855,0.000
1757890413.175,-125.488,-38.086,-312.500,-43.457,0.000
1757890413.179,-83.496,-18.555,-140.137,-55.664,0.000
1757890413.183,18.555,-9.766,105.469,-50.781,0.000
1757890413.187,-3.418,-28.809,-73.242,-32.715,0.000
1757890413.191,-110.352,-33.691,-196.289,-25.879,0.000
1757890413.195,-117.188,-32.227,31.738,-43.457,0.000
1757890413.199,-31.250,-39.551,123.047,-52.734,0.000
1757890413.203,-35.156,-47.363,-103.516,-47.852,0.000
1757890413.206,-126.465,-48.828,-246.094,-60.547,0.000
1757890413.210,-147.461,-40.527,-159.668,-63.477,0.000
1757890413.214,-52.246,-34.668,-165.039,-34.668,0.000
1757890413.218,5.859,-41.504,-312.500,-5.859,0.000
1757890413.222,-79.590,-48.340,-399.902,-31.250,0.000
1757890413.226,-128.418,-39.062,-87.891,-54.688,0.000
1757890413.230,-59.570,-32.227,74.219,-42.480,0.000
1757890413.234,10.254,-23.926,-40.527,-25.391,0.000
1757890413.238,-39.062,-31.250,-44.922,-18.555,0.000
1757890413.242,-114.258,-24.414,60.547,-32.227,0.000
1757890413.245,-77.637,-15.625,20.996,-32.715,0.000
1757890413.249,13.672,-18.066,-111.328,-29.297,0.000
1757890413.253,-12.695,-7.324,-81.055,-45.898,0.000
1757890413.257,-123.535,-12.207,6.348,-71.777,0.000
1757890413.261,-106.445,-20.508,-184.082,-58.594,0.000
1757890413.265,2.930,-23.926,-362.305,-9.277,0.000
1757890413.269,13.672,-18.066,-206.543,-11.230,0.000
1757890413.273,-84.473,-16.602,-23.926,-44.922,0.000
1757890413.277,-140.137,-19.043,-186.035,-57.129,0.000
1757890413.280,-59.082,-25.391,-177.246,-41.504,0.000
1757890413.284,-4.395,-25.879,50.293,-26.855,0.000
1757890413.288,-83.984,-25.879,102.051,-46.387,0.000
1757890413.292,-145.508,-25.879,-140.625,-55.664,0.000
1757890413.296,-83.008,-24.902,-187.500,-41.016,0.000
1757890413.300,16.113,-22.461,66.406,-7.812,0.000
1757890413.304,-22.461,-24.902,70.312,-3.906,0.000
1757890413.308,-117.188,-44.434,-240.234,-12.695,0.000
1757890413.312,-79.102,-47.363,-398.438,-9.277,0.000
1757890413.316,10.742,-40.039,-145.508,-12.695,0.000
1757890413.319,-9.277,-45.410,9.277,-18.066,0.000
1757890413.323,-109.375,-45.410,-206.055,-34.668,0.000
1757890413.327,-114.258,-29.785,-203.613,-33.691,0.000
1757890413.331,-13.672,-19.531,111.816,-33.203,0.000
1757890413.335,1.953,-25.879,64.453,-21.973,0.000
1757890413.339,-81.055,-32.715,-136.719,-10.254,0.000
1757890413.343,-104.004,-23.438,-94.727,-18.066,0.000
1757890413.347,-20.996,-15.625,81.055,-19.043,0.000
1757890413.351,28.320,-22.949,40.527,-12.207,0.000
1757890413.355,-51.270,-29.785,-207.520,-33.203,0.000
1757890413.359,-114.746,-24.902,-183.105,-55.664,0.000
1757890413.363,-34.180,-17.578,77.637,-23.926,0.000
1757890413.366,41.504,-26.855,10.742,-7.812,0.000
1757890413.370,-36.621,-43.945,-238.770,-28.320,0.000
1757890413.374,-119.141,-35.156,-147.461,-48.340,0.000
1757890413.378,-96.191,-29.785,-123.535,-56.152,0.000
1757890413.382,-7.812,-40.039,-273.926,-37.598,0.000
1757890413.386,1.953,-35.645,-208.008,-24.902,0.000
1757890413.390,-94.727,-20.996,8.301,-44.434,0.000
1757890413.394,-97.168,-20.996,85.449,-34.180,0.000
1757890413.398,14.160,-37.109,-66.406,-8.789,0.000
1757890413.402,36.621,-41.504,-241.699,-16.602,0.000
1757890413.406,-74.219,-31.738,-216.309,-39.062,0.000
1757890413.409,-121.094,-29.297,-185.547,-54.688,0.000
1757890413.413,-43.945,-44.434,-345.215,-46.387,0.000
1757890413.417,30.762,-42.969,-265.625,-19.043,0.000
1757890413.421,-24.902,-28.809,79.590,-20.996,0.000
1757890413.425,-112.305,-31.250,38.086,-55.176,0.000
1757890413.429,-82.031,-31.738,-98.633,-51.270,0.000
1757890413.433,-14.648,-35.645,-167.969,-36.621,0.000
1757890413.437,-44.434,-35.645,-116.211,-54.199,0.000
1757890413.441,-137.695,-37.109,-60.547,-69.336,0.000
1757890413.445,-126.953,-41.504,-167.480,-76.660,0.000
1757890413.449,-9.766,-41.016,-251.465,-59.082,0.000
1757890413.452,6.348,-47.363,-142.090,-22.949,0.000
1757890413.456,-103.516,-60.059,-64.941,-45.410,0.000
1757890413.460,-151.367,-62.988,-256.348,-63.965,0.000
1757890413.464,-54.199,-46.875,-53.223,-50.293,0.000
1757890413.468,7.324,-28.320,157.227,-51.270,0.000
1757890413.472,-79.102,-37.598,-34.668,-65.430,0.000
1757890413.476,-131.836,-55.176,-172.852,-67.871,0.000
1757890413.480,-45.410,-53.711,43.945,-36.133,0.000
1757890413.484,39.551,-56.641,64.453,-23.438,0.000
1757890413.488,-25.391,-58.594,-214.355,-44.434,0.000
1757890413.492,-128.906,-52.734,-275.391,-70.801,0.000
1757890413.495,-94.238,-52.734,-190.918,-79.590,0.000
1757890413.499,2.441,-43.945,-143.555,-63.965,0.000
1757890413.503,-27.832,-46.387,-338.867,-57.617,0.000
1757890413.507,-122.559,-46.875,-355.957,-61.523,0.000
1757890413.511,-103.027,-31.250,61.035,-64.453,0.000
1757890413.515,1.465,-32.227,119.629,-41.992,0.000
1757890413.519,13.672,-36.621,-59.082,-45.410,0.000
1757890413.523,-84.473,-41.992,-51.758,-75.684,0.000
1757890413.527,-112.793,-43.457,85.449,-72.266,0.000
1757890413.531,-24.902,-44.434,39.062,-61.035,0.000
1757890413.534,18.555,-44.434,-21.973,-57.617,0.000
1757890413.538,-41.504,-42.480,39.551,-72.754,0.000
1757890413.542,-105.469,-55.664,-54.688,-70.312,0.000
1757890413.546,-57.129,-56.152,-213.379,-45.410,0.000
1757890413.550,29.297,-42.480,-230.469,-41.504,0.000
1757890413.554,-0.488,-28.809,-5.371,-41.992,0.000
1757890413.558,-89.844,-33.691,125.488,-55.664,0.000
1757890413.562,-64.941,-47.852,-86.914,-43.945,0.000
1757890413.566,18.066,-49.316,-138.672,-20.508,0.000
1757890413.570,12.695,-39.062,62.012,-33.691,0.000
1757890413.574,-70.801,-33.691,86.914,-47.363,0.000
1757890413.577,-106.445,-43.457,-95.215,-52.734,0.000
1757890413.581,-10.254,-39.551,-169.434,-46.875,0.000
1757890413.585,26.367,-27.832,16.602,-47.852,0.000
1757890413.589,-73.730,-32.715,-89.844,-48.340,0.000
1757890413.593,-109.863,-42.969,-361.816,-39.062,0.000
1757890413.597,-21.973,-43.457,-332.520,-27.832,0.000
1757890413.601,44.922,-34.180,13.184,-24.902,0.000
1757890413.605,-31.738,-35.156,67.383,-40.039,0.000
1757890413.609,-122.070,-33.203,-68.848,-66.406,0.000
1757890413.612,-65.430,-28.320,-25.879,-73.730,0.000
1757890413.617,33.203,-25.391,123.047,-51.270,0.000
1757890413.620,6.836,-35.645,44.922,-29.297,0.000
1757890413.624,-67.871,-47.852,-131.836,-34.668,0.000
1757890413.628,-54.199,-41.016,-46.875,-52.734,0.000
1757890413.632,22.949,-34.668,86.914,-38.086,0.000
1757890413.636,29.785,-48.340,-133.301,-12.695,0.000
1757890413.640,-54.688,-60.059,-360.840,-18.066,0.000
1757890413.644,-71.777,-47.363,-147.461,-39.062,0.000
1757890413.648,28.320,-37.109,114.258,-25.879,0.000
1757890413.652,70.801,-43.457,27.832,3.906,0.000
1757890413.655,-19.043,-51.270,-205.566,-12.207,0.000
1757890413.659,-82.520,-51.758,-182.617,-20.508,0.000
1757890413.663,2.930,-44.922,75.195,1.953,0.000
1757890413.667,78.613,-47.363,16.113,20.508,0.000
1757890413.671,2.441,-53.711,-127.930,-5.859,0.000
1757890413.675,-73.730,-51.758,-13.672,-32.227,0.000
1757890413.679,-36.133,-50.781,83.984,-23.926,0.000
1757890413.683,35.156,-69.336,-156.250,-7.812,0.000
1757890413.687,20.508,-69.336,-395.996,0.000,0.000
1757890413.691,-75.195,-41.992,-179.199,-27.344,0.000
1757890413.694,-91.309,-41.504,-86.426,-42.969,0.000
1757890413.698,10.742,-41.504,-170.898,-17.090,0.000
1757890413.702,26.855,-44.434,-28.320,-20.020,0.000
1757890413.706,-67.383,-48.340,83.496,-50.781,0.000
1757890413.710,-100.586,-40.039,30.762,-53.223,0.000
1757890413.714,-21.973,-39.062,-107.422,-38.574,0.000
1757890413.718,28.320,-34.668,-56.152,-27.832,0.000
1757890413.722,-43.945,-26.855,93.262,-43.457,0.000
1757890413.726,-111.816,-28.320,-13.184,-58.594,0.000
1757890413.730,-50.293,-28.320,-192.383,-42.969,0.000
1757890413.734,23.438,-15.625,-59.570,-41.992,0.000
1757890413.737,-14.160,-5.371,94.238,-49.316,0.000
1757890413.741,-97.656,-26.855,-30.273,-52.734,0.000
1757890413.745,-92.285,-45.898,-229.980,-63.477,0.000
1757890413.749,10.254,-27.344,-36.133,-52.734,0.000
1757890413.753,0.977,-13.672,154.785,-41.016,0.000
1757890413.757,-96.680,-21.973,-86.426,-49.316,0.000
1757890413.761,-90.820,-27.344,-182.129,-53.711,0.000
1757890413.765,18.555,-28.809,98.145,-29.785,0.000
1757890413.769,40.527,-31.250,-25.391,-23.926,0.000
1757890413.773,-73.242,-29.785,-268.555,-57.129,0.000
1757890413.777,-118.164,-35.645,-267.090,-73.730,0.000
1757890413.780,-46.875,-36.133,-208.984,-70.312,0.000
1757890413.784,5.371,-32.227,-154.297,-62.988,0.000
1757890413.788,-60.547,-45.410,-364.746,-55.664,0.000
1757890413.792,-136.230,-41.016,-294.434,-58.594,0.000
1757890413.796,-67.383,-16.113,108.887,-55.664,0.000
1757890413.800,31.250,-20.020,99.121,-36.133,0.000
1757890413.804,-15.137,-36.621,-79.102,-27.344,0.000
1757890413.808,-104.980,-39.062,-41.016,-40.527,0.000
1757890413.812,-98.633,-27.832,81.055,-54.199,0.000
1757890413.816,3.906,-29.297,65.430,-35.156,0.000
1757890413.820,5.859,-38.574,-63.965,-26.855,0.000
1757890413.823,-103.516,-32.227,-223.145,-41.504,0.000
1757890413.827,-100.098,-26.367,-198.730,-43.457,0.000
1757890413.831,8.301,-33.203,-177.246,-33.203,0.000
1757890413.835,48.828,-35.156,-239.258,-10.742,0.000
1757890413.839,-34.180,-31.250,-56.152,-10.254,0.000
1757890413.843,-86.914,-32.715,116.699,-27.344,0.000
1757890413.847,-15.137,-45.898,-20.020,-23.926,0.000
1757890413.851,33.691,-48.828,-85.938,-25.391,0.000
1757890413.855,-35.645,-34.180,66.406,-41.504,0.000
1757890413.859,-100.098,-33.691,83.008,-46.875,0.000
1757890413.863,-53.711,-41.016,-37.598,-53.711,0.000
1757890413.866,22.949,-40.527,-55.176,-65.430,0.000
1757890413.870,-5.371,-34.668,-72.754,-55.664,0.000
1757890413.874,-96.191,-33.691,-182.617,-59.570,0.000
1757890413.878,-84.961,-38.086,-339.844,-51.270,0.000
1757890413.882,1.465,-32.715,-322.266,-40.527,0.000
1757890413.886,4.883,-18.555,44.922,-53.223,0.000
1757890413.890,-82.031,-26.367,64.941,-58.594,0.000
1757890413.894,-112.793,-30.273,-106.445,-59.570,0.000
1757890413.898,-20.996,-22.461,-10.742,-48.828,0.000
1757890413.902,42.969,-21.484,137.695,-20.996,0.000
1757890413.906,-38.086,-40.527,-75.684,-14.160,0.000
1757890413.909,-111.816,-44.922,-216.309,-46.875,0.000
1757890413.913,-45.898,-33.691,-50.293,-58.105,0.000
1757890413.917,25.391,-43.457,-21.484,-35.156,0.000
1757890413.921,-19.531,-48.340,-160.156,-44.922,0.000
1757890413.925,-86.426,-45.410,-327.148,-41.016,0.000
1757890413.929,-59.570,-30.762,-99.121,-38.574,0.000
1757890413.933,29.297,-21.484,143.066,-31.738,0.000
1757890413.937,-4.395,-36.621,-104.492,-37.598,0.000
1757890413.941,-95.703,-46.875,-194.336,-58.105,0.000
1757890413.945,-90.820,-41.504,43.457,-54.688,0.000
1757890413.949,-4.883,-37.598,129.883,-51.270,0.000
1757890413.952,6.836,-39.551,-28.809,-53.711,0.000
1757890413.956,-89.844,-35.645,-94.727,-58.105,0.000
1757890413.960,-121.094,-31.738,32.227,-58.594,0.000
1757890413.964,-34.668,-31.738,-67.383,-49.805,0.000
1757890413.968,21.484,-37.598,-332.031,-26.367,0.000
1757890413.972,-47.852,-44.434,-371.582,-23.438,0.000
1757890413.976,-116.699,-41.504,1.465,-56.152,0.000
1757890413.980,-71.289,-42.480,84.961,-67.871,0.000
1757890413.984,2.441,-41.992,-66.895,-46.875,0.000
1757890413.987,-50.293,-37.109,-32.715,-75.195,0.000
1757890413.991,-135.254,-32.715,21.484,-84.473,0.000
1757890413.995,-94.727,-36.621,-168.457,-47.852,0.000
1757890413.999,1.953,-33.203,-193.359,-29.785,0.000
1757890414.003,-12.207,-28.320,15.137,-35.156,0.000
1757890414.007,-105.957,-30.273,73.242,-53.711,0.000
1757890414.011,-103.027,-25.391,-124.512,-31.250,0.000
1757890414.015,0.977,-29.297,-342.773,5.859,0.000
1757890414.019,32.227,-36.621,-161.133,4.395,0.000
1757890414.023,-59.082,-42.480,111.816,-26.855,0.000
1757890414.027,-104.492,-45.898,-48.340,-47.852,0.000
1757890414.030,-34.180,-34.668,-116.211,-51.270,0.000
1757890414.034,17.578,-36.621,57.129,-41.992,0.000
1757890414.038,-34.180,-44.434,95.215,-39.062,0.000
1757890414.042,-91.797,-42.480,-100.586,-35.156,0.000
1757890414.046,-48.828,-41.992,-193.359,-26.367,0.000
1757890414.050,25.391,-41.992,-34.180,-20.508,0.000
1757890414.054,-3.906,-33.691,44.434,-32.227,0.000
1757890414.058,-98.633,-43.457,-245.117,-53.223,0.000
1757890414.062,-99.121,-54.688,-464.355,-54.199,0.000
1757890414.066,-5.371,-35.645,-147.461,-47.363,0.000
1757890414.069,9.277,-29.297,59.082,-50.781,0.000
1757890414.073,-72.266,-34.180,-83.496,-56.641,0.000
1757890414.077,-83.984,-32.715,-69.824,-58.594,0.000
1757890414.081,2.441,-28.320,83.496,-40.039,0.000
1757890414.085,15.137,-34.180,41.992,-41.504,0.000
1757890414.089,-66.406,-34.668,-129.883,-54.199,0.000
1757890414.093,-108.398,-22.461,-81.055,-55.664,0.000
1757890414.097,-51.758,-21.484,84.961,-53.223,0.000
1757890414.101,14.648,-29.297,3.906,-33.691,0.000
1757890414.105,-37.598,-35.156,-205.078,-25.879,0.000
1757890414.109,-110.352,-31.250,-261.719,-40.527,0.000
1757890414.112,-55.176,-18.066,-60.547,-33.203,0.000
1757890414.116,37.109,-19.043,15.137,-18.066,0.000
1757890414.120,11.719,-32.227,-228.027,-13.672,0.000
1757890414.124,-81.055,-34.668,-100.098,-22.461,0.000
1757890414.128,-80.078,-29.297,114.746,-37.598,0.000
1757890414.132,-1.953,-32.715,0.000,-32.715,0.000
1757890414.136,12.695,-42.480,-107.910,-35.645,0.000
1757890414.140,-66.895,-35.645,20.508,-38.086,0.000
1757890414.144,-115.723,-22.461,86.914,-60.059,0.000
1757890414.148,-36.621,-27.344,-83.984,-52.734,0.000
1757890414.152,28.809,-32.227,-245.605,-21.484,0.000
1757890414.155,-43.945,-29.297,-226.074,-41.992,0.000
1757890414.159,-107.910,-34.668,-199.707,-41.992,0.000
1757890414.163,-46.875,-50.781,-330.566,-25.391,0.000
1757890414.167,20.996,-41.992,-264.160,-39.062,0.000
1757890414.171,-28.809,-18.066,88.867,-57.129,0.000
1757890414.175,-118.652,-20.020,60.547,-61.035,0.000
1757890414.179,-79.102,-23.926,-81.543,-46.387,0.000
1757890414.183,2.930,-23.926,1.953,-29.785,0.000
1757890414.187,-32.715,-22.461,103.027,-27.344,0.000
1757890414.191,-108.398,-24.902,5.371,-35.645,0.000
1757890414.195,-100.586,-25.879,-149.414,-34.668,0.000
1757890414.198,-16.113,-18.555,-178.223,-23.926,0.000
1757890414.202,3.906,-20.996,-170.410,-24.414,0.000
1757890414.206,-76.172,-31.250,-227.539,-23.438,0.000
1757890414.210,-108.398,-32.715,-267.090,-24.902,0.000
1757890414.214,-25.879,-21.484,-116.211,-23.926,0.000
1757890414.218,30.762,-17.578,72.754,-17.578,0.000
1757890414.222,-45.410,-38.086,-38.086,-20.020,0.000
1757890414.226,-136.719,-47.852,-124.512,-42.969,0.000
1757890414.230,-79.102,-22.949,43.945,-51.758,0.000
1757890414.234,20.996,-15.625,113.770,-31.738,0.000
1757890414.238,-38.086,-35.156,-73.242,-40.527,0.000
1757890414.241,-130.859,-36.133,-226.074,-68.359,0.000
1757890414.245,-93.262,-31.250,-166.504,-56.152,0.000
1757890414.249,-14.648,-37.598,-188.965,-48.828,0.000
1757890414.253,-33.203,-45.898,-335.938,-51.758,0.000
1757890414.257,-131.836,-46.875,-369.629,-61.523,0.000
1757890414.261,-127.930,-24.902,-49.805,-73.242,0.000
1757890414.265,-16.602,-20.996,81.055,-39.062,0.000
1757890414.269,11.230,-27.344,-57.617,-27.344,0.000
1757890414.273,-68.848,-22.461,-216.797,-54.688,0.000
1757890414.277,-105.469,-16.113,-76.660,-64.453,0.000
1757890414.281,-24.902,-17.578,31.250,-30.762,0.000
1757890414.284,48.828,-26.855,-117.676,-11.719,0.000
1757890414.288,-14.648,-37.109,-186.035,-35.645,0.000
1757890414.292,-99.609,-42.480,-214.355,-40.039,0.000
1757890414.296,-55.664,-44.434,-215.332,-29.297,0.000
1757890414.300,20.996,-41.016,-278.809,-35.156,0.000
1757890414.304,-10.254,-25.391,-156.738,-51.758,0.000
1757890414.308,-80.078,-22.949,66.895,-61.035,0.000
1757890414.312,-55.664,-31.250,-50.781,-49.805,0.000
1757890414.316,32.715,-20.508,-132.324,-40.527,0.000
1757890414.320,16.602,-20.020,20.020,-55.176,0.000
1757890414.323,-80.078,-29.297,82.520,-59.082,0.000
1757890414.327,-99.121,-33.203,-161.621,-52.246,0.000
1757890414.331,-4.395,-29.297,-266.602,-38.086,0.000
1757890414.335,37.598,-24.414,-11.719,-25.391,0.000
1757890414.339,-59.570,-47.852,-99.121,-53.223,0.000
1757890414.343,-123.535,-63.477,-396.484,-64.941,0.000
1757890414.347,-68.359,-47.363,-417.480,-67.383,0.000
1757890414.351,13.184,-32.715,-6.836,-63.477,0.000
1757890414.355,-25.391,-36.133,78.125,-43.457,0.000
1757890414.359,-117.188,-33.691,-148.926,-49.316,0.000
1757890414.362,-68.848,-39.062,-126.465,-39.551,0.000
1757890414.366,33.203,-39.062,79.102,-27.832,0.000
1757890414.370,1.953,-32.715,40.527,-45.898,0.000
1757890414.374,-90.332,-38.574,-163.574,-52.734,0.000
1757890414.378,-82.520,-40.527,-110.840,-39.062,0.000
1757890414.382,12.695,-28.809,18.555,-20.996,0.000
1757890414.386,29.785,-35.645,-164.062,-7.324,0.000
1757890414.390,-66.895,-39.062,-327.637,-9.277,0.000
1757890414.394,-100.098,-22.949,-173.340,-10.742,0.000
1757890414.398,-3.418,-30.762,59.570,-7.324,0.000
1757890414.401,40.527,-47.852,-16.113,-9.766,0.000
1757890414.405,-49.805,-35.645,-205.566,-29.297,0.000
1757890414.409,-116.211,-18.555,-59.082,-55.664,0.000
1757890414.413,-62.500,-27.344,103.027,-59.570,0.000
1757890414.417,18.555,-37.109,-95.215,-41.992,0.000
1757890414.421,-22.949,-31.738,-232.910,-50.293,0.000
1757890414.425,-111.328,-24.902,-25.391,-58.594,0.000
1757890414.429,-88.867,-32.227,64.453,-53.223,0.000
1757890414.433,1.465,-52.246,-233.398,-38.574,0.000
1757890414.437,3.906,-47.363,-419.434,-29.297,0.000
1757890414.440,-102.051,-25.879,-223.145,-55.664,0.000
1757890414.444,-123.047,-25.879,-250.977,-77.637,0.000
1757890414.448,-21.973,-21.973,-220.215,-60.059,0.000
1757890414.452,17.090,-13.184,-58.594,-40.039,0.000
1757890414.456,-54.199,-13.184,-10.254,-40.039,0.000
1757890414.460,-99.609,-29.297,-21.973,-52.246,0.000
1757890414.464,-26.367,-43.945,-127.441,-54.199,0.000
1757890414.468,27.344,-28.809,-82.520,-33.203,0.000
1757890414.472,-46.387,-20.996,39.551,-40.527,0.000
1757890414.476,-102.051,-27.344,-84.961,-64.453,0.000
1757890414.480,-56.152,-24.902,-248.047,-57.617,0.000
1757890414.484,31.250,-18.555,-150.391,-33.203,0.000
1757890414.487,20.020,-12.207,51.270,-20.996,0.000
1757890414.491,-64.941,-30.273,-109.375,-15.137,0.000
1757890414.495,-59.082,-44.922,-349.121,-21.973,0.000
1757890414.499,23.438,-20.508,-84.473,-22.949,0.000
1757890414.503,15.625,-20.020,116.699,-23.926,0.000
1757890414.507,-83.984,-35.156,-127.441,-39.551,0.000
1757890414.511,-100.586,-38.086,-289.551,-49.316,0.000
1757890414.515,-15.625,-31.738,-52.246,-42.969,0.000
1757890414.519,21.973,-25.879,89.355,-30.762,0.000
1757890414.523,-63.477,-33.691,-122.070,-41.504,0.000
1757890414.527,-119.629,-33.691,-323.242,-56.152,0.000
1757890414.530,-39.062,-27.344,-227.051,-38.574,0.000
1757890414.534,24.414,-26.367,-166.992,-22.949,0.000
1757890414.538,-47.363,-39.062,-371.582,-31.738,0.000
1757890414.542,-136.719,-41.016,-378.906,-52.734,0.000
1757890414.546,-95.703,-22.461,1.953,-72.754,0.000
1757890414.550,-1.465,-26.855,8.301,-64.941,0.000
1757890414.554,-33.203,-31.738,-161.621,-61.523,0.000
1757890414.558,-114.258,-23.926,-158.203,-66.406,0.000
1757890414.562,-85.938,-23.926,-39.551,-59.570,0.000
1757890414.566,0.977,-36.133,-1.953,-41.992,0.000
1757890414.570,7.324,-36.133,-170.410,-38.574,0.000
1757890414.573,-79.590,-27.832,-291.504,-58.594,0.000
1757890414.577,-104.492,-30.273,-155.762,-61.035,0.000
1757890414.581,-15.625,-27.832,7.812,-43.457,0.000
1757890414.585,22.949,-28.809,-225.586,-27.832,0.000
1757890414.589,-54.688,-19.043,-191.406,-28.809,0.000
1757890414.593,-107.422,-2.930,29.785,-41.504,0.000
1757890414.597,-40.039,-14.160,-104.980,-37.598,0.000
1757890414.601,34.180,-28.809,-156.738,-20.996,0.000
1757890414.605,-13.672,-29.297,9.766,-23.926,0.000
1757890414.609,-106.445,-31.250,-149.902,-42.969,0.000
1757890414.613,-91.797,-31.250,-339.355,-48.828,0.000
1757890414.616,-11.230,-27.344,-186.523,-29.297,0.000
1757890414.620,-21.973,-35.156,-160.645,-24.902,0.000
1757890414.624,-95.215,-28.809,-229.004,-41.504,0.000
1757890414.628,-112.305,-31.738,-337.402,-47.363,0.000
1757890414.632,-42.969,-39.551,-341.309,-42.480,0.000
1757890414.636,-6.348,-23.438,33.203,-35.156,0.000
1757890414.640,-71.289,-23.438,54.688,-25.879,0.000
1757890414.644,-110.840,-33.203,-164.551,-21.973,0.000
1757890414.648,-45.410,-42.969,-65.430,-8.789,0.000
1757890414.652,-9.766,-35.156,117.188,-7.812,0.000
1757890414.655,-89.844,-30.762,22.461,-23.438,0.000
1757890414.659,-154.297,-32.715,-157.715,-35.156,0.000
1757890414.663,-88.379,-22.949,-199.219,-25.879,0.000
1757890414.667,-6.348,-30.762,-207.520,-5.371,0.000
1757890414.671,-53.711,-35.645,-239.258,-10.254,0.000
1757890414.675,-144.043,-31.250,-355.957,-19.043,0.000
1757890414.679,-101.074,-27.832,-261.230,-16.113,0.000
1757890414.683,5.371,-22.949,42.480,-3.906,0.000
1757890414.687,-19.531,-32.227,-42.480,-18.555,0.000
1757890414.691,-127.930,-42.969,-208.496,-46.387,0.000
1757890414.695,-132.812,-40.039,-12.695,-46.875,0.000
1757890414.698,-28.809,-35.645,87.891,-27.344,0.000
1757890414.702,2.441,-37.109,-155.273,-20.996,0.000
1757890414.706,-71.777,-41.016,-280.273,-41.504,0.000
1757890414.710,-105.469,-35.156,-61.035,-39.551,0.000
1757890414.714,-30.273,-34.668,-114.746,-32.715,0.000
1757890414.718,19.043,-54.199,-361.328,-28.320,0.000
1757890414.722,-64.453,-58.594,-443.359,-30.273,0.000
1757890414.726,-120.605,-32.715,-181.152,-49.316,0.000
1757890414.730,-63.477,-28.320,18.066,-35.156,0.000
1757890414.733,22.461,-43.457,-97.168,-18.066,0.000
1757890414.737,8.301,-41.016,-132.324,-28.809,0.000
1757890414.741,-88.379,-31.250,50.781,-40.527,0.000
1757890414.745,-83.008,-31.250,29.785,-31.738,0.000
1757890414.749,5.859,-43.457,-137.695,-17.578,0.000
1757890414.753,2.441,-44.922,-67.871,-33.691,0.000
1757890414.757,-103.516,-41.504,-14.160,-55.664,0.000
1757890414.761,-134.277,-51.270,-172.363,-54.688,0.000
1757890414.765,-44.922,-48.828,-358.398,-38.574,0.000
1757890414.769,-22.949,-37.109,-198.730,-32.715,0.000
1757890414.773,-97.656,-41.992,31.738,-29.785,0.000
1757890414.776,-133.301,-50.781,-211.914,-35.156,0.000
1757890414.780,-53.223,-39.062,-183.105,-34.668,0.000
1757890414.784,21.973,-27.344,43.457,-27.832,0.000
1757890414.788,-28.809,-36.621,73.242,-24.414,0.000
1757890414.792,-98.633,-51.758,-162.109,-24.414,0.000
1757890414.796,-71.289,-50.781,-284.668,-51.270,0.000
1757890414.800,7.812,-45.898,-4.395,-45.898,0.000
1757890414.804,-10.254,-41.504,70.801,-39.551,0.000
1757890414.808,-102.539,-46.387,-294.922,-43.457,0.000
1757890414.812,-90.820,-54.688,-451.660,-23.926,0.000
1757890414.815,19.531,-42.969,-175.781,-11.719,0.000
1757890414.819,32.715,-36.621,0.977,-12.207,0.000
1757890414.823,-63.965,-47.363,-77.148,-44.434,0.000
1757890414.827,-93.262,-40.527,-161.133,-57.617,0.000
1757890414.831,-9.766,-33.691,-121.094,-33.203,0.000
1757890414.835,35.156,-41.016,-97.656,-28.809,0.000
1757890414.839,-38.574,-40.527,-151.855,-46.387,0.000
1757890414.843,-92.285,-36.133,-210.938,-35.156,0.000
1757890414.847,-26.855,-28.809,-34.180,-23.438,0.000
1757890414.851,46.875,-38.574,26.367,-31.250,0.000
1757890414.855,1.465,-51.270,-187.012,-31.250,0.000
1757890414.859,-87.402,-36.621,-233.398,-45.410,0.000
1757890414.862,-67.871,-26.855,-57.617,-65.430,0.000
1757890414.866,19.531,-38.086,-20.996,-54.688,0.000
1757890414.870,3.906,-39.062,-238.281,-39.062,0.000
1757890414.874,-82.031,-27.344,-134.766,-48.828,0.000
1757890414.878,-67.383,-25.391,55.664,-63.965,0.000
1757890414.882,25.391,-28.809,18.066,-37.109,0.000
1757890414.886,44.922,-46.387,-185.547,-4.883,0.000
1757890414.890,-36.621,-50.293,-228.516,-21.973,0.000
1757890414.894,-77.637,-32.715,-4.883,-41.016,0.000
1757890414.898,-17.090,-30.273,-104.492,-40.039,0.000
1757890414.902,26.855,-31.250,-317.871,-41.016,0.000
1757890414.905,-23.926,-34.668,-247.559,-34.668,0.000
1757890414.909,-78.125,-36.621,-195.801,-21.484,0.000
1757890414.913,-30.273,-40.527,-341.797,-14.648,0.000
1757890414.917,38.086,-44.434,-342.285,-25.391,0.000
1757890414.921,-10.742,-37.109,-10.254,-51.270,0.000
1757890414.925,-86.914,-30.762,7.324,-58.594,0.000
1757890414.929,-61.035,-29.785,-168.457,-54.688,0.000
1757890414.933,22.461,-34.180,-72.266,-39.551,0.000
1757890414.937,31.738,-36.133,65.430,-22.461,0.000
1757890414.941,-64.941,-43.945,-47.852,-39.551,0.000
1757890414.945,-112.793,-44.434,-197.754,-60.059,0.000
1757890414.948,-27.344,-40.527,-236.328,-48.828,0.000
1757890414.952,26.855,-42.480,-192.383,-37.598,0.000
1757890414.956,-57.129,-37.598,-107.910,-55.176,0.000
1757890414.960,-117.676,-37.598,-274.414,-62.012,0.000
1757890414.964,-36.133,-30.273,-247.559,-54.199,0.000
1757890414.968,40.527,-21.484,51.270,-36.133,0.000
1757890414.972,-19.531,-27.832,-64.453,-38.574,0.000
1757890414.976,-89.844,-33.203,-294.922,-43.945,0.000
1757890414.980,-25.879,-24.902,-96.191,-20.508,0.000
1757890414.984,65.430,-28.320,92.773,-6.348,0.000
1757890414.987,20.996,-39.551,-107.910,-18.555,0.000
1757890414.991,-69.824,-36.621,-270.996,-35.156,0.000
1757890414.995,-60.059,-37.598,-216.309,-35.156,0.000
1757890414.999,30.762,-29.785,-186.035,-17.578,0.000
1757890415.003,38.574,-20.996,-312.988,-5.371,0.000
1757890415.007,-50.781,-30.762,-390.625,-3.418,0.000
1757890415.011,-58.105,-34.180,-44.434,-7.812,0.000
1757890415.015,7.812,-29.785,101.562,-8.789,0.000
1757890415.019,28.320,-26.855,-80.078,-19.043,0.000
1757890415.023,-49.316,-30.762,-113.770,-41.016,0.000
1757890415.027,-112.305,-26.367,59.082,-43.945,0.000
1757890415.030,-44.434,-32.715,10.254,-47.852,0.000
1757890415.034,34.668,-31.250,-130.371,-37.598,0.000
1757890415.038,-15.137,-22.461,-68.848,-28.320,0.000
1757890415.042,-91.797,-36.621,-159.668,-23.926,0.000
1757890415.046,-60.547,-39.551,-252.441,-17.090,0.000
1757890415.050,12.695,-37.109,-316.406,-18.555,0.000
1757890415.054,-10.742,-28.320,-319.336,-28.320,0.000
1757890415.058,-99.609,-12.207,-117.188,-40.039,0.000
1757890415.062,-89.844,-11.230,-45.898,-44.434,0.000
1757890415.065,10.254,-15.137,-56.641,-26.367,0.000
1757890415.070,26.367,-14.648,43.457,-12.207,0.000
1757890415.073,-62.012,-20.020,87.402,-33.691,0.000
1757890415.077,-99.121,-31.250,-133.789,-32.715,0.000
1757890415.081,1.953,-20.996,-153.320,-19.043,0.000
1757890415.085,63.965,-19.043,47.363,-15.137,0.000
1757890415.089,-30.762,-32.715,-130.859,-27.344,0.000
1757890415.093,-97.168,-44.434,-339.844,-35.156,0.000
1757890415.097,-47.852,-44.922,-365.234,-20.996,0.000
1757890415.101,24.414,-15.625,8.789,-23.438,0.000
1757890415.105,-0.488,-12.695,109.863,-35.156,0.000
1757890415.108,-90.332,-34.668,-157.715,-33.203,0.000
1757890415.112,-80.566,-36.133,-153.809,-32.227,0.000
1757890415.116,18.066,-24.414,89.844,-32.715,0.000
1757890415.120,21.484,-20.996,65.430,-37.109,0.000
1757890415.124,-59.082,-30.762,-148.438,-38.574,0.000
1757890415.128,-90.332,-38.574,-142.578,-40.039,0.000
1757890415.132,-22.949,-30.273,27.832,-37.598,0.000
1757890415.136,8.789,-33.203,-85.449,-17.578,0.000
1757890415.140,-84.961,-38.574,-355.469,-19.043,0.000
1757890415.144,-123.047,-25.391,-272.949,-45.410,0.000
1757890415.148,-40.527,-16.602,53.223,-47.852,0.000
1757890415.151,12.207,-20.020,15.625,-26.367,0.000
1757890415.155,-38.574,-19.043,-116.699,-17.578,0.000
1757890415.159,-97.168,-22.949,15.625,-20.508,0.000
1757890415.163,-60.547,-35.645,92.773,-20.020,0.000
1757890415.167,29.297,-41.992,-37.109,-7.812,0.000
1757890415.171,6.348,-38.086,-224.609,-19.043,0.000
1757890415.175,-86.426,-24.902,-124.512,-42.969,0.000
1757890415.179,-73.730,-24.902,57.129,-42.969,0.000
1757890415.183,20.996,-37.109,-222.656,-16.602,0.000
1757890415.187,23.438,-39.551,-409.668,1.953,0.000
1757890415.190,-52.734,-29.785,-206.055,-34.180,0.000
1757890415.194,-70.312,-17.578,-10.742,-44.922,0.000
1757890415.198,1.953,-31.738,-142.090,-19.043,0.000
1757890415.202,39.551,-41.504,-225.586,-29.785,0.000
1757890415.206,-50.781,-34.180,59.570,-57.129,0.000
1757890415.210,-109.863,-36.621,17.090,-51.758,0.000
1757890415.214,-30.273,-33.203,-112.793,-37.109,0.000
1757890415.218,30.273,-26.367,-11.230,-41.992,0.000
1757890415.222,-46.875,-23.926,-48.340,-58.594,0.000
1757890415.226,-122.070,-26.855,-268.066,-49.805,0.000
1757890415.230,-81.543,-37.109,-286.621,-22.461,0.000
1757890415.233,2.441,-32.715,-105.469,-26.367,0.000
1757890415.237,-20.020,-18.555,78.125,-32.227,0.000
1757890415.241,-110.352,-23.438,-23.438,-36.133,0.000
1757890415.245,-90.332,-22.949,-208.496,-26.367,0.000
1757890415.249,16.602,-14.160,-80.078,-7.324,0.000
1757890415.253,52.734,-13.184,124.512,26.855,0.000
1757890415.257,-35.156,-32.227,-139.160,30.762,0.000
1757890415.261,-94.727,-41.992,-279.297,-13.184,0.000
1757890415.265,-11.230,-14.648,32.227,-32.715,0.000
1757890415.269,49.316,-9.277,101.074,-19.043,0.000
1757890415.273,-47.852,-27.832,-131.836,-26.367,0.000
1757890415.276,-114.258,-34.180,-322.754,-50.781,0.000
1757890415.280,-41.016,-24.414,-235.840,-38.086,0.000
1757890415.284,26.855,-23.926,-174.316,-20.020,0.000
1757890415.288,-25.879,-40.527,-340.332,-25.879,0.000
1757890415.292,-106.445,-41.016,-381.348,-29.785,0.000
1757890415.296,-77.148,-20.996,-9.277,-42.969,0.000
1757890415.300,5.371,-23.926,88.379,-29.785,0.000
1757890415.304,-5.859,-29.297,-98.145,-28.809,0.000
1757890415.308,-102.051,-26.367,-88.867,-51.270,0.000
1757890415.312,-120.605,-24.414,68.359,-51.758,0.000
1757890415.316,-24.902,-27.344,40.527,-53.223,0.000
1757890415.319,7.324,-28.809,-95.215,-44.434,0.000
1757890415.323,-82.520,-31.738,-233.887,-37.598,0.000
1757890415.327,-111.328,-27.832,-140.625,-43.457,0.000
1757890415.331,-26.367,-22.461,18.555,-38.574,0.000
1757890415.335,20.508,-27.832,-239.746,-28.320,0.000
1757890415.339,-40.527,-18.555,-168.945,-44.922,0.000
1757890415.343,-105.957,-19.043,119.629,-48.828,0.000
1757890415.347,-57.617,-42.969,-28.809,-33.691,0.000
1757890415.351,19.531,-36.133,-88.379,-26.367,0.000
1757890415.355,-15.137,-23.926,46.875,-33.203,0.000
1757890415.359,-93.262,-32.227,61.523,-43.457,0.000
1757890415.362,-64.941,-31.250,-107.910,-34.668,0.000
1757890415.366,20.996,-21.973,-212.402,-23.926,0.000
1757890415.370,19.531,-23.926,-186.523,-22.461,0.000
1757890415.374,-60.547,-26.855,-196.289,-37.598,0.000
1757890415.378,-86.426,-34.180,-326.172,-41.992,0.000
1757890415.382,1.465,-43.945,-356.934,-28.809,0.000
1757890415.386,42.480,-29.297,15.137,-28.809,0.000
1757890415.390,-47.852,-27.832,-11.719,-43.457,0.000
1757890415.394,-108.887,-29.785,-185.547,-59.570,0.000
1757890415.398,-34.180,-23.438,-25.391,-46.875,0.000
1757890415.402,43.945,-25.879,112.793,-33.691,0.000
1757890415.405,-6.836,-34.668,24.414,-22.461,0.000
1757890415.409,-77.148,-31.738,-155.762,-18.555,0.000
1757890415.413,-29.297,-23.926,-60.547,-12.207,0.000
1757890415.417,54.688,-31.250,28.320,-5.859,0.000
1757890415.421,-10.742,-30.762,-165.039,-23.438,0.000
1757890415.425,-124.512,-41.504,-375.977,-35.645,0.000
1757890415.429,-99.121,-42.480,-194.336,-31.738,0.000
1757890415.433,9.277,-27.344,127.930,-17.578,0.000
1757890415.437,19.531,-38.086,4.883,-12.695,0.000
1757890415.440,-66.406,-43.945,-123.047,-21.484,0.000
1757890415.445,-99.121,-39.551,-63.477,-41.992,0.000
1757890415.448,-11.719,-30.762,-10.742,-38.086,0.000
1757890415.452,35.156,-36.133,-24.902,-18.555,0.000
1757890415.456,-56.641,-44.922,-145.996,-41.992,0.000
1757890415.460,-112.305,-40.039,-122.559,-63.477,0.000
1757890415.464,-41.504,-38.574,-146.973,-48.340,0.000
1757890415.468,33.691,-43.457,-324.707,-23.438,0.000
1757890415.472,-9.277,-34.668,-395.020,-23.438,0.000
1757890415.476,-93.750,-15.625,-42.480,-35.645,0.000
1757890415.480,-67.871,-24.414,74.219,-47.363,0.000
1757890415.483,16.113,-32.227,-56.152,-32.715,0.000
1757890415.487,13.184,-24.414,-33.691,-19.531,0.000
1757890415.491,-59.570,-16.113,58.594,-27.832,0.000
1757890415.495,-83.008,-28.320,32.715,-30.273,0.000
1757890415.499,-4.395,-49.316,-130.859,-12.695,0.000
1757890415.503,19.531,-49.805,-223.145,-13.672,0.000
1757890415.507,-76.660,-38.086,-132.812,-41.504,0.000
1757890415.511,-110.840,-42.480,-193.359,-36.133,0.000
1757890415.515,-47.363,-59.082,-378.906,-20.508,0.000
1757890415.519,-6.836,-50.781,-233.398,-29.297,0.000
1757890415.522,-62.500,-29.297,89.355,-66.895,0.000
1757890415.526,-128.906,-29.785,-43.945,-69.336,0.000
1757890415.530,-65.430,-29.785,-104.980,-38.574,0.000
1757890415.534,11.719,-25.391,30.273,-28.809,0.000
1757890415.538,-39.062,-27.832,77.637,-39.551,0.000
1757890415.542,-109.863,-33.691,-109.375,-43.457,0.000
1757890415.546,-74.219,-38.086,-277.344,-35.156,0.000
1757890415.550,4.883,-36.133,-20.508,-40.527,0.000
1757890415.554,-9.277,-35.645,48.828,-55.176,0.000
1757890415.558,-108.398,-44.922,-292.969,-50.781,0.000
1757890415.562,-124.023,-46.875,-419.922,-48.340,0.000
1757890415.565,-20.508,-35.645,-210.449,-36.621,0.000
1757890415.569,3.906,-34.668,-228.027,-27.832,0.000
1757890415.573,-80.566,-37.109,-350.098,-40.039,0.000
1757890415.577,-109.863,-29.297,-261.719,-51.270,0.000
1757890415.581,-30.762,-19.531,50.293,-37.598,0.000
1757890415.585,44.922,-24.902,62.500,-11.719,0.000
1757890415.589,-5.371,-29.297,-114.258,-3.906,0.000
1757890415.593,-92.773,-41.992,-203.613,-17.090,0.000
1757890415.597,-54.199,-38.574,-4.395,-27.344,0.000
1757890415.601,22.949,-26.855,70.801,-11.230,0.000
1757890415.605,-21.484,-30.762,-208.496,-13.672,0.000
1757890415.608,-100.098,-29.785,-203.125,-30.273,0.000
1757890415.612,-72.266,-27.832,-102.051,-21.973,0.000
1757890415.616,13.672,-31.250,-221.191,6.348,0.000
1757890415.620,-3.418,-38.086,-287.598,3.418,0.000
1757890415.624,-103.027,-30.273,-118.164,-35.645,0.000
1757890415.628,-108.887,-22.461,57.617,-41.016,0.000
1757890415.632,-5.371,-34.668,-15.137,-23.438,0.000
1757890415.636,30.273,-40.527,-117.676,-10.742,0.000
1757890415.640,-52.734,-32.227,-8.789,-33.691,0.000
1757890415.644,-106.934,-27.344,54.688,-49.805,0.000
1757890415.648,-50.293,-32.227,-126.953,-40.527,0.000
1757890415.651,19.043,-34.180,-315.430,-26.855,0.000
1757890415.655,-29.297,-30.762,-249.023,-27.832,0.000
1757890415.659,-109.863,-29.297,-211.426,-39.551,0.000
1757890415.663,-55.176,-33.691,-330.078,-22.949,0.000
1757890415.667,50.781,-27.344,-381.348,12.695,0.000
1757890415.671,31.250,-10.742,-132.324,11.230,0.000
1757890415.675,-69.336,-22.461,-5.371,-17.090,0.000
1757890415.679,-78.125,-37.598,-125.488,-27.832,0.000
1757890415.683,10.254,-34.180,-40.527,-17.090,0.000
1757890415.687,12.695,-33.203,78.125,-23.438,0.000
1757890415.691,-79.590,-34.668,-4.883,-40.039,0.000
1757890415.694,-103.027,-29.785,-185.547,-46.875,0.000
1757890415.698,-21.973,-33.203,-252.930,-41.016,0.000
1757890415.702,26.367,-36.133,-178.711,-42.480,0.000
1757890415.706,-44.922,-31.250,-188.477,-46.875,0.000
1757890415.710,-116.211,-41.992,-367.188,-42.969,0.000
1757890415.714,-70.801,-36.133,-193.359,-45.898,0.000
