timestamps,TP9,AF7,AF8,TP10,Right AUX
1757889230.126,-40.527,-37.109,101.074,-49.805,0.000
1757889230.130,-25.391,-33.203,-44.434,-45.898,0.000
1757889230.134,11.230,-33.203,-21.484,-40.039,0.000
1757889230.138,11.230,-26.855,107.910,-35.156,0.000
1757889230.142,-30.273,-26.855,59.570,-37.109,0.000
1757889230.145,-32.227,-36.621,-143.066,-30.762,0.000
1757889230.149,4.883,-38.086,-250.488,-32.227,0.000
1757889230.153,19.043,-35.156,-167.480,-35.645,0.000
1757889230.157,-29.297,-36.133,-188.477,-31.738,0.000
1757889230.161,-52.734,-39.062,-322.754,-31.250,0.000
1757889230.165,-17.090,-38.574,-99.121,-37.598,0.000
1757889230.169,6.348,-37.598,132.324,-24.414,0.000
1757889230.173,-17.578,-40.039,-6.348,-19.531,0.000
1757889230.177,-53.223,-42.969,-93.262,-30.762,0.000
1757889230.181,-38.086,-43.457,25.879,-26.855,0.000
1757889230.185,3.906,-41.504,106.934,-27.344,0.000
1757889230.188,-12.207,-45.898,-38.086,-38.574,0.000
1757889230.192,-63.965,-56.641,-287.109,-43.945,0.000
1757889230.196,-63.477,-46.387,-187.012,-39.062,0.000
1757889230.200,-21.973,-36.133,94.238,-34.668,0.000
1757889230.204,-19.531,-44.434,-74.219,-34.668,0.000
1757889230.208,-67.871,-44.922,-440.430,-45.410,0.000
1757889230.212,-87.402,-31.738,-212.402,-63.477,0.000
1757889230.216,-51.758,-30.273,71.777,-52.246,0.000
1757889230.220,-35.156,-33.203,-59.570,-40.527,0.000
1757889230.224,-73.730,-37.598,-131.348,-51.270,0.000
1757889230.228,-103.516,-41.016,8.789,-51.270,0.000
1757889230.231,-72.266,-37.109,39.062,-40.039,0.000
1757889230.235,-41.992,-36.621,-94.727,-43.945,0.000
1757889230.239,-72.754,-37.598,-267.090,-57.129,0.000
1757889230.243,-101.562,-38.086,-255.371,-48.828,0.000
1757889230.247,-82.520,-33.691,-189.453,-45.898,0.000
1757889230.251,-41.992,-33.203,-390.625,-41.992,0.000
1757889230.255,-47.363,-40.527,-313.965,-33.691,0.000
1757889230.259,-92.773,-36.133,69.336,-47.363,0.000
1757889230.263,-77.637,-36.133,-27.832,-40.039,0.000
1757889230.267,-40.039,-38.574,-164.062,-35.156,0.000
1757889230.271,-39.551,-33.203,-1.953,-34.180,0.000
1757889230.274,-64.941,-27.832,93.262,-31.738,0.000
1757889230.278,-73.242,-23.438,-41.016,-30.762,0.000
1757889230.282,-44.434,-23.438,-200.195,-20.508,0.000
1757889230.286,-32.715,-16.113,-232.910,-26.367,0.000
1757889230.290,-64.453,-11.230,-247.559,-33.691,0.000
1757889230.294,-85.938,-17.578,-366.699,-39.551,0.000
1757889230.298,-66.406,-18.066,-442.383,-42.969,0.000
1757889230.302,-24.902,-9.277,-134.766,-41.504,0.000
1757889230.306,-41.504,0.488,78.613,-46.875,0.000
1757889230.309,-84.961,0.977,-114.258,-47.852,0.000
1757889230.314,-55.176,0.977,-256.348,-46.875,0.000
1757889230.317,-11.719,1.465,-18.066,-46.387,0.000
1757889230.321,-23.926,-1.953,-91.309,-36.621,0.000
1757889230.325,-67.383,-2.441,-290.527,-42.969,0.000
1757889230.329,-76.172,-1.953,-203.125,-49.316,0.000
1757889230.333,-27.832,-8.789,-256.836,-37.109,0.000
1757889230.337,-15.625,-11.719,-262.207,-28.320,0.000
1757889230.341,-54.688,-17.578,-426.758,-27.832,0.000
1757889230.345,-73.730,-21.484,-425.781,-34.668,0.000
1757889230.349,-40.039,-15.625,-106.934,-37.109,0.000
1757889230.352,-11.230,-16.602,-65.430,-25.391,0.000
1757889230.356,-46.387,-19.531,-196.289,-28.320,0.000
1757889230.360,-77.637,-16.113,-214.355,-39.551,0.000
1757889230.364,-50.293,-19.043,-121.582,-46.387,0.000
1757889230.368,-8.301,-26.855,-190.918,-39.062,0.000
1757889230.372,-28.809,-27.344,-277.832,-34.668,0.000
1757889230.376,-62.012,-22.949,-243.164,-39.062,0.000
1757889230.380,-64.941,-24.414,-258.301,-40.527,0.000
1757889230.384,-38.086,-35.156,-359.863,-39.062,0.000
1757889230.388,-39.551,-32.715,-416.504,-42.480,0.000
1757889230.391,-80.566,-21.973,-233.887,-55.664,0.000
1757889230.395,-76.172,-27.832,-149.414,-50.293,0.000
1757889230.399,-40.527,-34.180,-244.141,-43.945,0.000
1757889230.403,-22.949,-26.855,-273.926,-34.668,0.000
1757889230.407,-59.082,-28.320,-182.129,-35.156,0.000
1757889230.411,-83.496,-35.156,-226.562,-46.387,0.000
1757889230.415,-42.480,-31.738,-265.137,-43.945,0.000
1757889230.419,-10.742,-36.621,-199.219,-39.551,0.000
1757889230.423,-42.969,-40.039,-210.938,-33.203,0.000
1757889230.427,-78.613,-36.621,-301.270,-39.551,0.000
1757889230.431,-61.035,-41.016,-476.074,-39.062,0.000
1757889230.434,-37.109,-42.480,-504.883,-28.320,0.000
1757889230.438,-49.316,-29.297,-245.117,-34.668,0.000
1757889230.442,-76.172,-27.344,-250.977,-35.645,0.000
1757889230.446,-79.590,-27.832,-309.082,-28.809,0.000
1757889230.450,-41.504,-24.902,-193.848,-32.715,0.000
1757889230.454,-25.879,-27.832,-137.207,-36.621,0.000
1757889230.458,-63.965,-29.785,-269.531,-46.387,0.000
1757889230.462,-82.031,-36.133,-284.180,-45.410,0.000
1757889230.466,-49.316,-39.551,-169.922,-38.086,0.000
1757889230.470,-28.809,-30.762,-190.430,-38.086,0.000
1757889230.473,-59.082,-32.715,-330.078,-36.621,0.000
1757889230.477,-79.102,-38.086,-429.688,-37.109,0.000
1757889230.481,-57.617,-32.715,-234.375,-44.922,0.000
1757889230.485,-16.602,-30.762,-145.020,-34.668,0.000
1757889230.489,-43.945,-32.227,-294.434,-33.203,0.000
1757889230.493,-76.172,-33.691,-383.301,-50.781,0.000
1757889230.497,-54.688,-29.785,-251.953,-50.293,0.000
1757889230.501,-17.090,-25.879,-154.297,-39.062,0.000
1757889230.505,-21.484,-31.250,-214.844,-36.133,0.000
1757889230.509,-70.312,-35.645,-250.000,-40.039,0.000
1757889230.513,-66.406,-34.668,-185.059,-41.992,0.000
1757889230.517,-29.785,-28.320,-177.734,-39.551,0.000
1757889230.520,-23.438,-34.668,-343.750,-28.809,0.000
1757889230.524,-56.641,-41.016,-370.605,-30.762,0.000
1757889230.528,-67.871,-35.156,-238.770,-36.133,0.000
1757889230.532,-36.621,-34.668,-217.285,-30.273,0.000
1757889230.536,-17.578,-35.645,-287.109,-23.438,0.000
1757889230.540,-44.434,-34.668,-208.496,-33.203,0.000
1757889230.544,-73.730,-35.645,-213.867,-40.039,0.000
1757889230.548,-59.082,-41.016,-298.340,-33.691,0.000
1757889230.552,-30.762,-44.922,-223.633,-35.156,0.000
1757889230.556,-41.016,-43.945,-146.484,-41.016,0.000
1757889230.560,-66.895,-46.875,-173.340,-52.246,0.000
1757889230.563,-67.383,-50.293,-261.719,-57.617,0.000
1757889230.567,-32.227,-44.922,-341.309,-44.922,0.000
1757889230.571,-27.344,-38.086,-271.484,-27.344,0.000
1757889230.575,-62.988,-36.621,-123.047,-36.621,0.000
1757889230.579,-72.754,-40.527,-277.344,-37.598,0.000
1757889230.583,-33.691,-39.062,-446.777,-27.344,0.000
1757889230.587,-16.113,-29.297,-104.004,-36.621,0.000
1757889230.591,-54.199,-32.227,44.922,-44.434,0.000
1757889230.595,-71.777,-37.598,-130.859,-48.340,0.000
1757889230.599,-34.180,-37.109,-256.348,-46.387,0.000
1757889230.603,-10.254,-38.086,-214.355,-43.457,0.000
1757889230.606,-45.410,-34.180,-124.023,-41.992,0.000
1757889230.610,-78.125,-35.156,-222.656,-46.875,0.000
1757889230.614,-60.547,-36.133,-316.895,-42.480,0.000
1757889230.618,-22.949,-35.156,-266.113,-41.992,0.000
1757889230.622,-26.367,-30.762,-236.816,-49.316,0.000
1757889230.626,-52.246,-30.273,-445.312,-37.598,0.000
1757889230.630,-45.410,-29.785,-402.832,-31.738,0.000
1757889230.634,-0.977,-20.996,-16.113,-32.715,0.000
1757889230.638,-1.465,-22.461,-12.207,-26.367,0.000
1757889230.642,-53.711,-26.367,-200.684,-29.785,0.000
1757889230.646,-59.082,-24.414,-178.223,-35.645,0.000
1757889230.649,-16.113,-17.090,30.762,-22.461,0.000
1757889230.653,0.488,-14.648,-82.031,-16.113,0.000
1757889230.657,-34.180,-17.578,-291.504,-25.879,0.000
1757889230.661,-48.828,-16.113,-310.547,-21.973,0.000
1757889230.665,-23.438,-16.602,-242.188,-20.020,0.000
1757889230.669,5.371,-13.672,-284.180,-15.625,0.000
1757889230.673,-10.742,-10.254,-425.781,-6.836,0.000
1757889230.677,-42.969,-11.719,-210.449,-17.578,0.000
1757889230.681,-27.344,-20.996,-86.426,-25.391,0.000
1757889230.684,-1.465,-27.832,-137.695,-26.367,0.000
1757889230.689,-13.672,-29.785,-254.883,-23.926,0.000
1757889230.692,-46.387,-33.691,-206.543,-28.320,0.000
1757889230.696,-40.039,-35.156,-187.500,-37.109,0.000
1757889230.700,-4.395,-42.480,-235.840,-28.320,0.000
1757889230.704,-9.277,-39.551,-206.543,-30.762,0.000
1757889230.708,-51.270,-41.504,-290.039,-41.016,0.000
1757889230.712,-65.918,-50.781,-299.805,-41.992,0.000
1757889230.716,-21.484,-51.758,-439.453,-27.344,0.000
1757889230.720,-6.348,-52.734,-448.730,-18.555,0.000
1757889230.724,-38.574,-49.805,-130.859,-27.344,0.000
1757889230.727,-57.129,-46.875,-219.238,-27.832,0.000
1757889230.731,-25.879,-42.480,-305.176,-21.973,0.000
1757889230.735,2.930,-39.551,-180.664,-12.207,0.000
1757889230.739,-25.879,-39.551,-103.516,-10.254,0.000
1757889230.743,-53.711,-46.875,-238.770,-17.090,0.000
1757889230.747,-41.016,-46.387,-299.805,-20.508,0.000
1757889230.751,-3.906,-41.016,-187.012,-21.484,0.000
1757889230.755,3.418,-45.898,-238.281,-26.855,0.000
1757889230.759,-48.340,-49.316,-402.832,-42.480,0.000
1757889230.763,-64.453,-50.781,-433.594,-39.551,0.000
1757889230.767,-22.949,-49.805,-267.090,-28.809,0.000
1757889230.770,-19.531,-43.945,-214.355,-27.344,0.000
1757889230.774,-54.688,-38.574,-281.738,-24.902,0.000
1757889230.778,-61.523,-34.180,-310.547,-22.461,0.000
1757889230.782,-25.879,-34.180,-164.551,-25.879,0.000
1757889230.786,0.000,-40.039,-125.977,-30.762,0.000
1757889230.790,-26.855,-49.316,-212.402,-24.414,0.000
1757889230.794,-57.129,-47.852,-226.562,-30.762,0.000
1757889230.798,-23.438,-44.434,-204.590,-33.691,0.000
1757889230.802,1.465,-47.852,-266.113,-17.090,0.000
1757889230.806,-32.227,-48.828,-476.562,-8.789,0.000
1757889230.809,-65.918,-44.922,-474.121,-19.531,0.000
1757889230.813,-52.246,-35.645,-170.410,-32.227,0.000
1757889230.817,-6.836,-30.273,-173.340,-29.297,0.000
1757889230.821,-16.602,-37.109,-290.039,-28.809,0.000
1757889230.825,-63.477,-39.551,-286.621,-32.227,0.000
1757889230.829,-65.918,-33.691,-204.102,-40.527,0.000
1757889230.833,-25.879,-36.621,-256.836,-33.203,0.000
1757889230.837,-4.395,-34.180,-293.457,-24.414,0.000
1757889230.841,-17.578,-34.180,-243.164,-25.391,0.000
1757889230.845,-45.410,-37.598,-252.441,-27.832,0.000
1757889230.849,-32.715,-39.062,-352.539,-23.438,0.000
1757889230.852,-5.859,-38.574,-391.113,-17.090,0.000
1757889230.856,-29.297,-32.227,-253.906,-23.926,0.000
1757889230.860,-59.082,-30.273,-205.566,-36.621,0.000
1757889230.864,-41.992,-37.109,-364.746,-30.762,0.000
1757889230.868,-9.766,-43.945,-391.602,-30.762,0.000
1757889230.872,-22.461,-37.109,-213.379,-38.086,0.000
1757889230.876,-52.734,-32.227,-242.188,-35.156,0.000
1757889230.880,-50.781,-40.039,-285.645,-32.227,0.000
1757889230.884,-18.555,-18.555,-261.719,-32.715,0.000
1757889230.888,-14.648,33.203,-207.031,-31.250,0.000
1757889230.891,-42.480,54.199,-257.812,-34.668,0.000
1757889230.895,-56.152,51.758,-413.086,-38.574,0.000
1757889230.899,-33.691,51.270,-367.188,-31.738,0.000
1757889230.903,-13.672,51.270,-222.656,-27.832,0.000
1757889230.907,-45.898,44.922,-269.531,-35.156,0.000
1757889230.911,-69.824,32.715,-367.676,-41.992,0.000
1757889230.915,-43.457,34.180,-288.086,-29.785,0.000
1757889230.919,-6.836,37.109,-228.027,-26.367,0.000
1757889230.923,-28.320,29.297,-260.254,-30.762,0.000
1757889230.927,-70.801,22.461,-294.434,-34.180,0.000
1757889230.931,-55.664,15.137,-228.516,-36.133,0.000
1757889230.934,-22.461,9.277,-248.535,-27.832,0.000
1757889230.938,-19.531,9.277,-326.172,-20.996,0.000
1757889230.942,-47.363,7.812,-377.930,-26.855,0.000
1757889230.946,-56.641,3.906,-282.227,-35.645,0.000
1757889230.950,-30.762,-0.488,-147.949,-30.762,0.000
1757889230.954,-33.203,-12.207,-321.777,-29.297,0.000
1757889230.958,-68.848,-16.113,-425.781,-32.715,0.000
1757889230.962,-74.219,-12.207,-174.316,-35.156,0.000
1757889230.966,-31.738,-16.602,-86.426,-20.020,0.000
1757889230.970,-10.254,-19.531,-155.762,-12.207,0.000
1757889230.974,-41.016,-21.484,-235.352,-31.250,0.000
1757889230.978,-63.965,-20.020,-196.289,-40.527,0.000
1757889230.981,-47.852,-19.531,-184.570,-34.180,0.000
1757889230.985,-11.719,-22.949,-250.000,-32.715,0.000
1757889230.989,-32.715,-24.414,-309.082,-36.133,0.000
1757889230.993,-62.012,-24.902,-308.594,-30.273,0.000
1757889230.997,-44.434,-27.832,-261.230,-33.691,0.000
1757889231.001,-12.695,-37.109,-402.344,-28.809,0.000
1757889231.005,-13.184,-40.527,-392.090,-22.949,0.000
1757889231.009,-50.781,-34.180,-145.508,-35.645,0.000
1757889231.012,-60.059,-30.762,-220.703,-33.203,0.000
1757889231.017,-18.066,-30.273,-258.301,-23.926,0.000
1757889231.021,-5.371,-32.227,-146.484,-20.020,0.000
1757889231.024,-34.668,-34.180,-148.926,-21.973,0.000
1757889231.028,-53.223,-38.086,-276.855,-37.109,0.000
1757889231.032,-31.738,-38.086,-291.016,-34.180,0.000
1757889231.036,-10.254,-35.156,-273.438,-22.949,0.000
1757889231.040,-42.480,-36.621,-227.539,-35.645,0.000
1757889231.044,-62.500,-37.598,-302.734,-37.109,0.000
1757889231.048,-39.062,-43.945,-455.078,-22.461,0.000
1757889231.052,-7.812,-40.527,-198.730,-22.949,0.000
1757889231.055,-18.066,-42.969,-83.008,-30.273,0.000
1757889231.059,-45.410,-55.176,-235.840,-32.227,0.000
1757889231.064,-37.598,-53.223,-270.508,-34.668,0.000
1757889231.067,-20.996,-41.016,-163.574,-31.250,0.000
1757889231.071,-20.996,-40.527,-175.781,-29.297,0.000
1757889231.075,-55.176,-44.922,-224.121,-38.086,0.000
1757889231.079,-60.059,-44.434,-255.371,-39.551,0.000
1757889231.083,-21.973,-45.898,-322.754,-27.344,0.000
1757889231.087,-11.230,-45.898,-264.160,-29.297,0.000
1757889231.091,-46.387,-51.270,-444.824,-32.715,0.000
1757889231.095,-76.172,-48.828,-468.262,-36.133,0.000
1757889231.098,-48.340,-36.621,-127.441,-39.062,0.000
1757889231.102,-19.531,-43.457,-171.875,-32.715,0.000
1757889231.106,-50.293,-50.293,-287.109,-33.203,0.000
1757889231.110,-71.777,-45.410,-206.543,-29.297,0.000
1757889231.114,-53.711,-42.969,-98.633,-30.273,0.000
1757889231.118,-17.090,-44.922,-167.480,-25.391,0.000
1757889231.122,-22.949,-49.316,-268.066,-23.926,0.000
1757889231.126,-65.918,-54.688,-267.578,-35.645,0.000
1757889231.130,-62.012,-53.711,-327.148,-35.645,0.000
1757889231.134,-25.879,-40.039,-365.234,-18.066,0.000
1757889231.138,-15.137,-34.180,-416.016,-15.137,0.000
1757889231.141,-57.129,-37.109,-242.188,-38.086,0.000
1757889231.145,-79.590,-38.086,-163.086,-43.457,0.000
1757889231.149,-35.645,-49.805,-288.086,-36.621,0.000
1757889231.153,-30.762,-57.129,-288.086,-43.457,0.000
1757889231.157,-63.477,-53.711,-205.566,-41.504,0.000
1757889231.161,-72.754,-55.664,-324.707,-41.992,0.000
1757889231.165,-52.246,-55.664,-323.242,-41.016,0.000
1757889231.169,-17.578,-50.781,-198.242,-33.203,0.000
1757889231.173,-40.527,-50.781,-239.258,-35.645,0.000
1757889231.177,-82.520,-55.176,-308.594,-36.133,0.000
1757889231.180,-65.918,-62.500,-469.727,-36.133,0.000
1757889231.184,-35.645,-60.059,-472.168,-38.086,0.000
1757889231.188,-44.922,-48.828,-184.082,-47.363,0.000
1757889231.192,-78.125,-52.246,-252.930,-46.387,0.000
1757889231.196,-68.359,-52.734,-326.172,-34.668,0.000
1757889231.200,-27.344,-51.758,-232.422,-30.762,0.000
1757889231.204,-28.320,-55.176,-189.453,-29.785,0.000
1757889231.208,-58.105,-49.316,-270.508,-28.809,0.000
1757889231.212,-78.613,-48.340,-327.148,-39.551,0.000
1757889231.216,-41.992,-53.223,-256.348,-51.270,0.000
1757889231.220,-12.695,-57.617,-264.160,-45.410,0.000
1757889231.223,-58.594,-57.617,-361.816,-39.551,0.000
1757889231.227,-81.543,-55.664,-399.414,-43.945,0.000
1757889231.231,-47.363,-51.270,-265.625,-40.527,0.000
1757889231.235,-11.719,-47.363,-181.152,-29.785,0.000
1757889231.239,-16.602,-48.340,-378.418,-34.668,0.000
1757889231.243,-54.199,-51.270,-464.355,-36.621,0.000
1757889231.247,-61.035,-50.293,-215.332,-30.273,0.000
1757889231.251,-27.832,-49.316,-185.059,-28.809,0.000
1757889231.255,-35.156,-55.664,-241.211,-33.203,0.000
1757889231.259,-81.543,-59.082,-261.719,-43.945,0.000
1757889231.262,-83.984,-51.758,-221.191,-48.828,0.000
1757889231.266,-48.340,-52.734,-248.047,-48.340,0.000
1757889231.270,-38.574,-57.617,-324.219,-34.668,0.000
1757889231.274,-56.641,-54.688,-318.359,-32.227,0.000
1757889231.278,-66.895,-53.223,-300.293,-40.527,0.000
1757889231.282,-41.992,-47.363,-268.555,-26.855,0.000
1757889231.286,-16.113,-43.945,-403.320,-13.184,0.000
1757889231.290,-33.203,-40.527,-366.211,-26.855,0.000
1757889231.294,-61.523,-40.039,-189.941,-52.246,0.000
1757889231.298,-49.316,-47.852,-239.258,-53.711,0.000
1757889231.302,-14.160,-50.293,-254.395,-34.668,0.000
1757889231.305,-31.250,-48.828,-197.266,-27.832,0.000
1757889231.309,-70.801,-44.922,-191.895,-34.668,0.000
1757889231.313,-65.430,-50.781,-253.906,-33.691,0.000
1757889231.317,-31.738,-55.176,-344.238,-23.438,0.000
1757889231.321,-24.902,-43.945,-221.191,-16.113,0.000
1757889231.325,-58.105,-42.480,-133.301,-22.949,0.000
1757889231.329,-62.988,-54.199,-347.168,-32.715,0.000
1757889231.333,-26.855,-54.688,-394.043,-42.969,0.000
1757889231.337,-1.465,-44.922,-79.102,-42.969,0.000
1757889231.340,-36.133,-40.527,-104.004,-35.156,0.000
1757889231.345,-72.754,-36.133,-282.715,-30.762,0.000
1757889231.348,-37.598,-30.762,-247.070,-35.645,0.000
1757889231.352,-6.836,-30.273,-68.848,-22.949,0.000
1757889231.356,-48.828,-33.203,15.625,-30.762,0.000
1757889231.360,-79.590,-35.645,-191.895,-45.898,0.000
1757889231.364,-56.641,-41.504,-324.707,-44.434,0.000
1757889231.368,-20.996,-46.387,-283.203,-33.203,0.000
1757889231.372,-23.438,-44.434,-281.250,-28.809,0.000
1757889231.376,-56.641,-44.922,-469.727,-37.598,0.000
1757889231.380,-50.293,-43.945,-482.422,-35.645,0.000
1757889231.383,-22.949,-37.598,-216.797,-39.551,0.000
1757889231.387,-24.414,-45.410,-242.188,-40.527,0.000
1757889231.391,-50.781,-43.457,-306.641,-29.297,0.000
1757889231.395,-62.988,-32.715,-237.793,-31.738,0.000
1757889231.399,-35.156,-31.250,-215.820,-37.598,0.000
1757889231.403,-5.371,-24.414,-293.457,-18.555,0.000
1757889231.407,-38.574,-27.832,-363.770,-21.484,0.000
1757889231.411,-63.477,-34.180,-373.535,-27.832,0.000
1757889231.415,-33.203,-30.762,-291.504,-31.738,0.000
1757889231.419,-2.930,-33.203,-372.070,-26.855,0.000
1757889231.423,-30.273,-45.898,-519.043,-28.809,0.000
1757889231.426,-74.219,-41.504,-291.504,-34.668,0.000
1757889231.430,-55.664,-40.039,-222.656,-34.668,0.000
1757889231.434,-18.066,-44.434,-343.750,-34.668,0.000
1757889231.438,-27.344,-41.992,-425.781,-21.484,0.000
1757889231.442,-68.848,-43.457,-330.078,-25.391,0.000
1757889231.446,-71.289,-44.922,-281.738,-25.879,0.000
1757889231.450,-30.273,-46.387,-303.711,-22.461,0.000
1757889231.454,-20.020,-46.387,-312.500,-32.227,0.000
1757889231.458,-51.758,-47.852,-368.652,-38.574,0.000
1757889231.462,-71.289,-50.293,-330.566,-48.340,0.000
1757889231.466,-41.992,-53.223,-510.742,-41.016,0.000
1757889231.469,-22.949,-51.758,-508.301,-32.715,0.000
1757889231.473,-49.316,-51.270,-254.883,-50.293,0.000
1757889231.477,-71.289,-50.293,-333.496,-50.781,0.000
1757889231.481,-50.781,-52.734,-360.352,-34.180,0.000
1757889231.485,-16.602,-54.199,-256.836,-27.832,0.000
1757889231.489,-33.203,-53.223,-258.301,-40.527,0.000
1757889231.493,-64.941,-56.152,-370.605,-51.270,0.000
1757889231.497,-59.082,-55.176,-375.000,-38.086,0.000
1757889231.501,-29.785,-53.711,-302.734,-30.762,0.000
1757889231.505,-32.227,-55.664,-343.750,-34.668,0.000
1757889231.509,-61.523,-58.105,-439.941,-26.367,0.000
1757889231.512,-56.641,-53.711,-483.887,-26.367,0.000
1757889231.516,-22.949,-46.875,-272.461,-32.715,0.000
1757889231.520,-10.742,-46.387,-201.660,-20.996,0.000
1757889231.524,-41.504,-51.270,-355.469,-23.926,0.000
1757889231.528,-56.641,-55.176,-375.488,-41.016,0.000
1757889231.532,-26.367,-50.781,-209.473,-26.367,0.000
1757889231.536,-12.207,-50.293,-214.844,-12.207,0.000
1757889231.540,-37.598,-49.316,-291.504,-17.090,0.000
1757889231.544,-62.988,-44.922,-267.090,-10.742,0.000
1757889231.548,-42.969,-46.875,-247.070,-8.789,0.000
1757889231.551,-1.465,-46.387,-265.137,-20.508,0.000
1757889231.555,-11.230,-46.387,-434.570,-8.301,0.000
1757889231.559,-45.898,-44.922,-496.094,-3.906,0.000
1757889231.563,-43.945,-36.133,-266.113,-24.902,0.000
1757889231.567,-3.906,-36.621,-208.008,-12.207,0.000
1757889231.571,0.000,-33.203,-233.398,-10.254,0.000
1757889231.575,-46.875,-28.320,-179.688,-26.367,0.000
1757889231.579,-58.594,-33.203,-113.281,-29.785,0.000
1757889231.583,-21.484,-41.016,-99.609,-29.297,0.000
1757889231.587,-3.418,-40.527,-173.828,-27.344,0.000
1757889231.591,-38.574,-38.574,-142.090,-20.996,0.000
1757889231.594,-65.430,-40.527,-37.598,-26.367,0.000
1757889231.598,-41.992,-44.434,-216.797,-21.484,0.000
1757889231.602,-9.766,-39.062,-350.098,-11.230,0.000
1757889231.606,-21.973,-27.344,-231.934,-16.602,0.000
1757889231.610,-62.500,-27.832,-153.320,-15.625,0.000
1757889231.614,-55.664,-30.273,-138.184,-24.414,0.000
1757889231.618,-6.836,-25.391,-106.934,-24.414,0.000
1757889231.622,-21.484,-24.902,68.359,-14.160,0.000
1757889231.626,-58.594,-24.902,84.473,-19.531,0.000
1757889231.630,-52.734,-23.926,-74.219,-25.879,0.000
1757889231.634,-24.902,-28.809,-75.195,-21.484,0.000
1757889231.637,-15.137,-31.738,97.656,-18.066,0.000
1757889231.641,-51.270,-35.645,67.383,-28.809,0.000
1757889231.645,-76.172,-41.504,-126.953,-43.945,0.000
1757889231.649,-36.621,-40.039,-233.398,-32.715,0.000
1757889231.653,-14.160,-32.715,-151.855,-28.809,0.000
1757889231.657,-54.199,-34.668,3.906,-40.527,0.000
1757889231.661,-58.105,-46.387,-215.820,-27.832,0.000
1757889231.665,-35.156,-41.992,-209.473,-22.949,0.000
1757889231.669,-21.973,-33.203,152.344,-37.109,0.000
1757889231.673,-38.086,-38.086,43.457,-35.156,0.000
1757889231.677,-83.496,-43.457,-153.320,-30.273,0.000
1757889231.681,-63.477,-41.992,-34.180,-42.480,0.000
1757889231.684,-18.555,-41.992,112.305,-36.133,0.000
1757889231.688,-26.855,-45.898,5.859,-25.879,0.000
1757889231.692,-66.895,-46.387,-216.309,-33.203,0.000
1757889231.696,-67.383,-41.016,-256.836,-43.457,0.000
1757889231.700,-27.344,-35.156,3.906,-32.715,0.000
1757889231.704,-9.766,-33.691,-41.016,-26.367,0.000
1757889231.708,-33.691,-39.062,-382.324,-33.691,0.000
1757889231.712,-62.500,-36.621,-158.691,-45.410,0.000
1757889231.716,-34.180,-33.691,65.430,-43.945,0.000
1757889231.720,-13.184,-39.551,-143.555,-29.297,0.000
1757889231.724,-40.039,-37.598,-220.215,-25.879,0.000
1757889231.727,-59.570,-34.668,-93.750,-30.273,0.000
1757889231.731,-45.410,-37.109,-11.230,-49.316,0.000
1757889231.735,-17.090,-40.527,-148.926,-44.922,0.000
1757889231.739,-39.551,-51.758,-317.383,-37.109,0.000
1757889231.743,-83.984,-52.246,-297.852,-41.992,0.000
1757889231.747,-67.383,-42.480,-239.746,-41.992,0.000
1757889231.751,-13.672,-43.945,-459.961,-26.855,0.000
1757889231.755,-12.695,-35.156,-449.707,-21.973,0.000
1757889231.759,-56.641,-18.555,-180.664,-36.621,0.000
1757889231.762,-73.242,-23.438,-334.473,-37.598,0.000
1757889231.767,-39.551,-24.414,-311.523,-31.738,0.000
1757889231.770,-25.879,-19.043,-208.008,-30.273,0.000
1757889231.774,-55.664,-20.020,-277.344,-42.969,0.000
1757889231.778,-72.266,-17.090,-368.164,-48.340,0.000
1757889231.782,-51.270,-17.578,-323.242,-53.223,0.000
1757889231.786,-37.109,-19.043,-322.266,-55.176,0.000
1757889231.790,-60.059,-19.043,-308.105,-42.480,0.000
1757889231.794,-81.543,-30.762,-363.770,-48.828,0.000
1757889231.798,-72.266,-31.738,-468.750,-53.223,0.000
1757889231.802,-40.039,-9.277,-265.625,-47.363,0.000
1757889231.805,-55.176,-2.441,-222.656,-69.336,0.000
1757889231.809,-99.609,-11.719,-362.305,-86.914,0.000
1757889231.813,-91.797,-10.742,-368.652,-82.520,0.000
1757889231.817,-62.012,-4.883,-237.305,-76.660,0.000
1757889231.821,-69.336,-9.766,-280.762,-76.172,0.000
1757889231.825,-101.074,-10.254,-346.680,-89.844,0.000
1757889231.829,-109.863,-5.371,-315.430,-93.262,0.000
1757889231.833,-70.312,-4.883,-329.102,-88.867,0.000
1757889231.837,-52.246,0.488,-323.730,-92.773,0.000
1757889231.841,-98.145,0.977,-507.812,-100.098,0.000
1757889231.845,-115.723,-1.465,-529.785,-103.027,0.000
1757889231.848,-82.520,0.000,-219.238,-106.445,0.000
1757889231.852,-56.641,0.000,-254.395,-111.328,0.000
1757889231.856,-77.148,-3.418,-327.637,-109.375,0.000
1757889231.860,-106.934,-6.836,-273.438,-125.488,0.000
1757889231.864,-101.074,-9.766,-247.070,-111.328,0.000
1757889231.868,-71.777,-12.207,-303.711,-85.938,0.000
1757889231.872,-73.242,-13.672,-351.074,-100.098,0.000
1757889231.876,-88.867,-13.184,-307.617,-97.168,0.000
1757889231.880,-86.914,-16.602,-320.801,-88.379,0.000
1757889231.884,-49.805,-20.020,-404.297,-78.613,0.000
1757889231.887,-39.551,-17.578,-475.586,-84.473,0.000
1757889231.891,-67.383,-8.301,-298.340,-95.215,0.000
1757889231.895,-67.871,-9.766,-235.352,-75.195,0.000
1757889231.899,-32.715,-16.602,-397.949,-58.594,0.000
1757889231.903,-9.766,-19.531,-416.016,-40.527,0.000
1757889231.907,-40.039,-16.602,-251.465,-48.828,0.000
1757889231.911,-52.246,-16.602,-269.531,-48.828,0.000
1757889231.915,-22.949,-23.438,-313.477,-24.414,0.000
1757889231.919,12.695,-22.949,-288.086,-22.461,0.000
1757889231.923,8.789,-19.531,-300.293,-11.230,0.000
1757889231.927,-21.484,-24.414,-338.379,-20.508,0.000
1757889231.930,-21.484,-30.762,-515.137,-25.879,0.000
1757889231.934,0.977,-29.785,-486.328,-9.766,0.000
1757889231.938,6.836,-20.996,-225.098,-13.672,0.000
1757889231.942,-23.438,-26.367,-333.496,-9.766,0.000
1757889231.946,-31.738,-30.762,-361.816,-10.254,0.000
1757889231.950,1.953,-24.902,-255.859,-21.484,0.000
1757889231.954,17.090,-26.367,-231.934,-23.926,0.000
1757889231.958,-18.066,-31.250,-310.547,-27.344,0.000
1757889231.962,-47.363,-32.227,-333.496,-27.344,0.000
1757889231.966,-17.578,-29.785,-225.098,-18.066,0.000
1757889231.969,9.277,-30.762,-199.219,-5.371,0.000
1757889231.973,-17.090,-38.574,-350.586,-3.906,0.000
1757889231.977,-45.410,-43.945,-461.914,-10.742,0.000
1757889231.981,-19.531,-34.668,-261.719,-9.766,0.000
1757889231.985,4.395,-27.832,-154.785,-12.207,0.000
1757889231.989,-10.742,-31.738,-319.336,-8.301,0.000
1757889231.993,-36.621,-31.738,-374.023,-0.977,0.000
1757889231.997,-32.227,-31.738,-270.996,-15.625,0.000
1757889232.001,0.000,-39.551,-232.910,-20.508,0.000
1757889232.005,7.324,-38.574,-248.535,-6.348,0.000
1757889232.009,-20.996,-36.621,-284.180,-9.766,0.000
1757889232.012,-40.527,-37.598,-219.727,-11.230,0.000
1757889232.016,-12.207,-37.109,-205.566,-12.207,0.000
1757889232.020,4.395,-48.828,-365.723,-6.836,0.000
1757889232.024,-43.457,-53.711,-403.809,-8.301,0.000
1757889232.028,-65.918,-43.945,-246.094,-18.555,0.000
1757889232.032,-38.086,-45.410,-198.730,-13.184,0.000
1757889232.036,-9.766,-46.387,-243.652,-3.418,0.000
1757889232.040,-14.648,-39.062,-193.848,-5.371,0.000
1757889232.043,-36.621,-35.156,-142.090,-4.883,0.000
1757889232.048,-30.273,-38.574,-111.328,0.977,0.000
1757889232.052,6.348,-36.621,-192.383,-2.930,0.000
1757889232.055,-1.465,-35.156,-202.637,-9.766,0.000
1757889232.059,-47.363,-35.156,-16.602,-20.508,0.000
1757889232.063,-40.039,-32.227,-13.672,-21.484,0.000
1757889232.067,-5.371,-34.668,-239.258,-14.160,0.000
1757889232.071,-7.324,-33.203,-167.969,-12.695,0.000
1757889232.075,-25.391,-27.344,87.402,-18.555,0.000
1757889232.079,-37.598,-29.297,-54.688,-15.625,0.000
1757889232.083,-13.672,-27.344,-238.770,-10.254,0.000
1757889232.087,4.395,-24.902,-10.742,-3.906,0.000
1757889232.090,-26.367,-29.297,137.695,-10.742,0.000
1757889232.095,-46.875,-36.133,-198.242,-9.277,0.000
1757889232.098,-21.973,-39.062,-304.688,-10.742,0.000
1757889232.102,12.207,-35.156,87.402,-25.879,0.000
1757889232.106,-16.113,-40.039,101.074,-19.531,0.000
1757889232.110,-55.664,-44.434,-91.309,-23.438,0.000
1757889232.114,-37.598,-41.016,-255.371,-25.879,0.000
1757889232.118,-0.977,-38.086,-212.402,-20.508,0.000
1757889232.122,-10.254,-33.203,-141.113,-17.090,0.000
1757889232.126,-55.176,-38.086,-368.164,-22.461,0.000
1757889232.130,-58.105,-37.109,-346.191,-28.809,0.000
1757889232.133,-15.137,-31.738,86.426,-31.250,0.000
1757889232.137,-16.113,-32.227,77.148,-21.973,0.000
1757889232.141,-50.781,-28.320,-99.121,-11.230,0.000
1757889232.145,-60.059,-30.762,-28.809,-30.273,0.000
1757889232.149,-35.645,-30.273,101.562,-29.297,0.000
1757889232.153,-20.508,-28.320,17.090,-27.832,0.000
1757889232.157,-43.457,-29.785,-104.980,-37.109,0.000
1757889232.161,-62.988,-32.715,-193.359,-29.785,0.000
1757889232.165,-39.551,-28.320,-209.473,-22.461,0.000
1757889232.169,3.418,-25.391,-257.812,-21.973,0.000
1757889232.173,-10.742,-28.320,-361.816,-11.719,0.000
1757889232.176,-62.012,-20.508,-41.016,-7.324,0.000
1757889232.180,-52.246,-20.996,97.656,-9.766,0.000
1757889232.184,-4.883,-27.832,-147.461,-1.953,0.000
1757889232.188,-9.277,-31.738,-126.953,-0.977,0.000
1757889232.192,-52.246,-31.250,79.590,-9.766,0.000
1757889232.196,-55.176,-31.250,59.570,-24.902,0.000
1757889232.200,-14.160,-35.156,-49.316,-15.625,0.000
1757889232.204,-12.695,-34.668,-61.523,-23.926,0.000
1757889232.208,-46.875,-30.762,-140.625,-39.062,0.000
1757889232.212,-58.105,-23.926,-238.770,-33.691,0.000
1757889232.216,-32.227,-23.438,-355.957,-20.020,0.000
1757889232.219,2.441,-19.531,-368.652,-19.043,0.000
1757889232.223,-1.953,-9.766,-95.215,-21.484,0.000
1757889232.227,-52.246,-9.766,1.953,-17.578,0.000
1757889232.231,-62.500,-8.301,-60.059,-35.645,0.000
1757889232.235,-26.367,-8.789,-2.930,-38.086,0.000
1757889232.239,-39.062,-13.184,73.242,-37.598,0.000
1757889232.243,-81.055,-9.766,-43.945,-56.152,0.000
1757889232.247,-87.891,-10.254,-139.648,-63.477,0.000
1757889232.251,-52.734,-12.695,-1.953,-70.801,0.000
1757889232.255,-54.688,-17.090,-130.371,-68.359,0.000
1757889232.259,-96.191,-18.555,-350.586,-70.312,0.000
1757889232.262,-105.957,-23.438,-376.465,-82.520,0.000
1757889232.266,-81.055,-19.043,-99.121,-83.496,0.000
1757889232.270,-89.355,-17.090,108.398,-97.168,0.000
1757889232.274,-129.883,-24.902,-156.250,-115.723,0.000
1757889232.278,-139.160,-21.973,-355.957,-123.047,0.000
1757889232.282,-123.535,-17.578,-125.977,-125.977,0.000
1757889232.286,-116.699,-20.508,48.828,-125.488,0.000
1757889232.290,-138.184,-25.879,-113.281,-125.977,0.000
1757889232.294,-165.527,-21.484,-233.398,-124.023,0.000
1757889232.298,-152.344,-12.207,-53.711,-116.211,0.000
1757889232.301,-115.234,-10.254,-132.324,-105.957,0.000
1757889232.305,-125.000,-15.137,-411.621,-106.934,0.000
1757889232.309,-162.598,-17.578,-374.023,-124.023,0.000
1757889232.313,-179.199,-13.672,-186.523,-139.160,0.000
1757889232.317,-156.250,-19.531,-145.996,-146.484,0.000
1757889232.321,-139.648,-26.855,-309.082,-132.812,0.000
1757889232.325,-173.340,-21.973,-294.434,-129.395,0.000
1757889232.329,-179.688,-26.367,-117.188,-155.762,0.000
1757889232.333,-151.855,-38.574,-216.797,-151.855,0.000
1757889232.337,-145.020,-35.156,-235.352,-137.695,0.000
1757889232.340,-173.340,-33.691,-127.441,-135.742,0.000
1757889232.344,-194.824,-40.039,-179.688,-146.973,0.000
1757889232.348,-173.828,-48.828,-315.918,-148.926,0.000
1757889232.352,-141.602,-48.340,-357.910,-138.184,0.000
1757889232.356,-155.762,-34.180,-201.660,-141.602,0.000
1757889232.360,-190.918,-28.809,-126.953,-150.391,0.000
1757889232.364,-166.504,-34.180,-270.508,-138.184,0.000
1757889232.368,-146.973,-42.480,-266.602,-127.930,0.000
1757889232.372,-157.227,-39.551,-33.691,-145.508,0.000
1757889232.376,-190.430,-37.598,30.762,-152.832,0.000
1757889232.380,-186.035,-41.504,-153.320,-142.578,0.000
1757889232.383,-137.207,-37.109,-160.645,-135.254,0.000
1757889232.387,-112.305,-28.320,-88.867,-121.582,0.000
1757889232.391,-142.578,-24.902,-253.906,-128.418,0.000
1757889232.395,-183.105,-33.203,-429.199,-141.602,0.000
1757889232.399,-146.484,-37.109,-448.242,-116.699,0.000
1757889232.403,-101.074,-38.574,-216.797,-97.656,0.000
1757889232.407,-124.512,-38.086,-193.359,-107.910,0.000
1757889232.411,-154.297,-30.762,-257.812,-112.793,0.000
1757889232.414,-141.602,-27.344,-145.996,-118.652,0.000
1757889232.418,-99.609,-31.738,46.875,-110.840,0.000
1757889232.423,-114.258,-40.039,-6.348,-100.098,0.000
1757889232.426,-168.945,-43.457,-213.867,-109.863,0.000
1757889232.430,-148.438,-48.340,-193.359,-109.375,0.000
1757889232.434,-95.703,-47.363,14.160,-89.844,0.000
1757889232.438,-94.238,-39.551,-58.594,-88.379,0.000
1757889232.442,-117.676,-36.133,-287.598,-97.168,0.000
1757889232.446,-124.512,-38.086,-293.457,-88.867,0.000
1757889232.450,-124.512,-39.551,-182.129,-101.562,0.000
1757889232.454,-123.535,-42.969,-233.887,-114.258,0.000
1757889232.458,-146.973,-49.316,-395.996,-112.305,0.000
1757889232.461,-145.996,-45.898,-208.984,-108.398,0.000
1757889232.465,-101.074,-40.527,-84.473,-100.098,0.000
1757889232.469,-80.566,-39.062,-206.055,-101.562,0.000
1757889232.473,-116.699,-39.551,-242.188,-103.516,0.000
1757889232.477,-142.578,-38.086,-70.312,-96.680,0.000
1757889232.481,-117.676,-40.039,-6.348,-104.492,0.000
1757889232.485,-76.660,-35.645,-118.164,-97.168,0.000
1757889232.489,-76.172,-34.668,-306.641,-77.637,0.000
1757889232.493,-105.469,-38.086,-312.500,-85.938,0.000
1757889232.497,-102.539,-39.062,-250.000,-85.449,0.000
1757889232.501,-82.520,-41.016,-415.527,-70.312,0.000
1757889232.504,-76.172,-36.133,-394.531,-63.965,0.000
1757889232.508,-96.680,-29.297,-61.035,-63.477,0.000
1757889232.512,-98.633,-34.180,-40.039,-57.129,0.000
1757889232.516,-70.801,-38.086,-189.941,-61.035,0.000
1757889232.520,-59.570,-40.527,-172.363,-73.242,0.000
1757889232.524,-83.984,-41.992,-46.387,-69.824,0.000
1757889232.528,-97.168,-36.621,-120.117,-72.754,0.000
1757889232.532,-69.824,-33.203,-247.070,-65.430,0.000
1757889232.536,-44.434,-28.809,-279.785,-57.129,0.000
1757889232.540,-66.406,-28.809,-211.914,-71.777,0.000
1757889232.544,-107.910,-38.574,-261.230,-79.102,0.000
1757889232.547,-104.980,-43.945,-418.945,-71.777,0.000
1757889232.551,-67.383,-41.992,-104.004,-65.918,0.000
1757889232.555,-65.918,-46.875,-60.059,-65.430,0.000
1757889232.559,-91.309,-41.992,-373.047,-56.152,0.000
1757889232.563,-97.656,-30.762,-311.035,-67.383,0.000
1757889232.567,-75.684,-33.691,-26.367,-80.566,0.000
1757889232.571,-64.453,-40.039,41.016,-61.523,0.000
1757889232.575,-96.191,-38.574,-122.070,-50.781,0.000
1757889232.579,-95.703,-24.902,-178.711,-55.176,0.000
1757889232.583,-60.059,-18.555,-228.516,-61.035,0.000
1757889232.587,-49.805,-29.297,-267.578,-59.570,0.000
1757889232.590,-72.266,-37.598,-416.504,-50.781,0.000
1757889232.594,-114.258,-37.109,-464.844,-78.613,0.000
1757889232.598,-85.938,-41.016,-128.906,-85.938,0.000
1757889232.602,-34.668,-45.410,-20.020,-52.246,0.000
1757889232.606,-57.617,-38.574,-168.945,-55.664,0.000
1757889232.610,-90.332,-27.832,-239.258,-71.289,0.000
1757889232.614,-84.473,-25.879,-220.215,-73.730,0.000
1757889232.618,-62.012,-32.715,-242.676,-73.730,0.000
1757889232.622,-69.824,-41.992,-221.680,-70.312,0.000
1757889232.626,-93.750,-44.922,-200.684,-57.617,0.000
1757889232.630,-97.168,-35.645,-275.879,-68.359,0.000
1757889232.633,-62.012,-36.133,-296.387,-75.195,0.000
1757889232.637,-47.852,-34.180,-369.141,-67.383,0.000
1757889232.641,-79.102,-19.531,-212.891,-69.824,0.000
1757889232.645,-74.219,-28.320,-28.320,-60.547,0.000
1757889232.649,-56.641,-37.109,-185.059,-61.035,0.000
1757889232.653,-53.711,-30.762,-265.625,-66.895,0.000
1757889232.657,-69.824,-34.180,-157.227,-56.641,0.000
1757889232.661,-85.449,-42.969,-194.824,-42.480,0.000
1757889232.665,-55.176,-36.621,-225.586,-19.531,0.000
1757889232.669,-30.273,-27.344,-255.859,-27.344,0.000
1757889232.672,-54.688,-30.273,-187.988,-39.062,0.000
1757889232.676,-76.172,-36.621,-225.586,-38.086,0.000
1757889232.680,-82.031,-36.133,-453.613,-60.059,0.000
1757889232.684,-59.082,-32.715,-451.660,-67.383,0.000
1757889232.688,-49.805,-25.879,-58.594,-57.617,0.000
1757889232.692,-83.984,-32.715,-24.902,-51.270,0.000
1757889232.696,-90.332,-36.133,-220.215,-57.617,0.000
1757889232.700,-75.195,-41.016,-157.715,-74.707,0.000
1757889232.704,-72.266,-43.457,16.602,-71.777,0.000
1757889232.708,-93.750,-41.992,-38.574,-69.336,0.000
1757889232.712,-97.168,-46.387,-217.773,-72.266,0.000
1757889232.715,-62.988,-31.250,-157.715,-72.266,0.000
1757889232.719,-32.715,-25.391,-50.781,-67.383,0.000
1757889232.723,-53.223,-28.809,-238.281,-71.777,0.000
1757889232.727,-86.914,-27.344,-415.039,-72.754,0.000
1757889232.731,-71.289,-22.949,-273.438,-56.641,0.000
1757889232.735,-32.715,-25.879,-20.996,-50.781,0.000
1757889232.739,-43.457,-31.738,-141.113,-57.129,0.000
1757889232.743,-77.637,-26.855,-334.473,-52.734,0.000
1757889232.747,-74.707,-13.672,-167.969,-45.410,0.000
1757889232.751,-33.203,1.953,-114.746,-47.363,0.000
1757889232.754,-20.508,15.625,-217.773,-43.457,0.000
1757889232.758,-62.988,18.066,-272.949,-48.828,0.000
1757889232.762,-63.965,20.508,-167.969,-47.852,0.000
1757889232.766,-41.504,23.438,-159.180,-37.598,0.000
1757889232.770,-20.020,18.555,-354.492,-27.832,0.000
1757889232.774,-39.551,11.719,-400.879,-29.785,0.000
1757889232.778,-73.730,5.371,-272.461,-45.898,0.000
1757889232.782,-61.035,-9.277,-278.320,-40.039,0.000
1757889232.786,-21.484,-6.836,-297.363,-39.551,0.000
1757889232.789,-40.039,9.277,-145.508,-53.711,0.000
1757889232.793,-99.121,11.230,-88.867,-68.359,0.000
1757889232.797,-77.148,2.930,-154.785,-52.734,0.000
1757889232.801,-31.738,-8.301,-227.051,-45.410,0.000
1757889232.805,-44.434,-8.301,-115.723,-59.570,0.000
1757889232.809,-73.730,-0.977,24.414,-64.453,0.000
1757889232.813,-60.547,-3.906,-140.137,-55.176,0.000
1757889232.817,-28.809,-14.160,-315.430,-61.035,0.000
1757889232.821,-38.086,-21.973,-278.320,-71.777,0.000
1757889232.825,-64.453,-19.043,-149.902,-58.105,0.000
1757889232.829,-74.219,-19.043,-221.191,-50.293,0.000
1757889232.832,-59.082,-17.090,-385.254,-52.246,0.000
1757889232.836,-41.016,-14.160,-246.582,-53.711,0.000
1757889232.840,-49.316,-15.625,-152.832,-47.363,0.000
1757889232.844,-62.988,-15.625,-256.348,-54.688,0.000
1757889232.848,-46.875,-20.508,-278.320,-62.988,0.000
1757889232.852,-27.832,-17.578,-87.402,-56.641,0.000
1757889232.856,-38.574,-20.996,1.465,-49.805,0.000
1757889232.860,-57.129,-24.902,-177.734,-43.945,0.000
1757889232.864,-40.039,-19.043,-313.477,-33.203,0.000
1757889232.868,0.977,-22.949,-263.672,-17.578,0.000
1757889232.872,-17.578,-32.227,-260.742,-21.484,0.000
1757889232.876,-62.012,-38.574,-433.105,-38.086,0.000
1757889232.879,-74.707,-34.180,-428.711,-44.434,0.000
1757889232.883,-42.969,-20.996,-98.145,-62.500,0.000
1757889232.887,-16.113,-19.531,-67.383,-59.570,0.000
1757889232.891,-34.180,-8.789,-243.652,-40.527,0.000
1757889232.895,-70.801,15.137,-240.234,-49.316,0.000
1757889232.899,-48.828,20.508,-99.121,-53.223,0.000
1757889232.903,-22.949,15.625,-81.543,-52.246,0.000
1757889232.907,-64.453,9.277,-201.172,-67.383,0.000
1757889232.911,-89.355,9.277,-289.062,-79.102,0.000
1757889232.915,-62.500,8.789,-208.008,-65.918,0.000
1757889232.919,-20.020,1.953,-186.523,-37.598,0.000
1757889232.922,-23.926,-8.301,-345.703,-18.555,0.000
1757889232.926,-60.547,2.930,-227.051,-38.086,0.000
1757889232.930,-64.453,11.230,-34.668,-45.410,0.000
1757889232.934,-20.996,-1.465,-127.930,-24.902,0.000
1757889232.938,0.488,-5.371,-287.598,-26.367,0.000
1757889232.942,-38.574,-8.789,-200.684,-21.484,0.000
1757889232.946,-45.410,-20.996,-239.258,-17.578,0.000
1757889232.950,-14.160,-26.367,-263.184,-19.531,0.000
1757889232.954,-6.348,-31.250,-210.938,-5.859,0.000
1757889232.958,-38.574,-23.926,-281.738,-16.113,0.000
1757889232.961,-70.312,-12.695,-279.785,-34.668,0.000
1757889232.965,-47.363,-25.879,-439.941,-33.691,0.000
1757889232.969,-19.531,-25.391,-398.926,-26.855,0.000
1757889232.973,-29.297,-9.277,-38.086,-30.762,0.000
1757889232.977,-43.945,-9.766,-48.340,-23.926,0.000
1757889232.981,-45.410,-23.438,-229.980,-27.344,0.000
1757889232.985,-22.949,-30.762,-201.172,-29.785,0.000
1757889232.989,-22.461,-24.414,-90.820,-24.902,0.000
1757889232.993,-58.594,-20.508,-193.359,-24.902,0.000
1757889232.997,-68.848,-20.020,-244.141,-31.738,0.000
1757889233.001,-30.273,-18.066,-82.520,-27.832,0.000
1757889233.004,0.977,-25.879,-148.438,-12.207,0.000
1757889233.008,-32.227,-33.203,-303.711,-14.648,0.000
1757889233.012,-47.852,-29.297,-359.375,-32.227,0.000
1757889233.016,-13.672,-24.414,-116.211,-23.926,0.000
1757889233.020,10.742,-24.902,92.285,-8.301,0.000
1757889233.024,-1.953,-24.902,-151.367,-7.324,0.000
1757889233.028,-33.691,-27.344,-313.965,-5.371,0.000
1757889233.032,-22.461,-31.738,-64.453,-10.254,0.000
1757889233.036,10.742,-32.227,42.480,-6.836,0.000
1757889233.040,-4.395,-35.645,-135.254,-9.766,0.000
1757889233.044,-47.363,-43.945,-234.375,-23.926,0.000
1757889233.047,-36.621,-47.852,-157.227,-14.160,0.000
1757889233.051,0.000,-47.363,-203.613,-13.184,0.000
1757889233.055,-22.949,-53.223,-431.641,-43.457,0.000
1757889233.059,-77.148,-63.477,-518.555,-60.547,0.000
1757889233.063,-75.684,-52.734,-209.473,-48.828,0.000
1757889233.067,-39.062,-46.387,-10.742,-39.551,0.000
1757889233.071,-38.574,-50.781,-96.680,-52.734,0.000
1757889233.075,-63.477,-48.828,-164.062,-55.664,0.000
1757889233.079,-62.988,-43.457,-44.922,-43.945,0.000
1757889233.083,-37.598,-47.363,-22.949,-38.574,0.000
1757889233.086,-26.855,-58.594,-138.184,-22.949,0.000
1757889233.090,-46.875,-56.641,-125.977,-16.602,0.000
1757889233.094,-67.383,-48.340,-139.160,-25.391,0.000
1757889233.098,-47.852,-44.922,-294.922,-32.227,0.000
1757889233.102,-18.555,-48.340,-360.352,-22.949,0.000
1757889233.106,-32.715,-43.945,-183.105,-25.391,0.000
1757889233.110,-51.758,-35.645,-7.324,-29.297,0.000
1757889233.114,-37.598,-46.387,-167.969,-14.648,0.000
1757889233.118,-15.137,-61.035,-257.324,-15.625,0.000
1757889233.121,-1.953,-49.805,-3.418,-24.414,0.000
1757889233.125,-26.367,-40.527,58.594,-20.996,0.000
1757889233.129,-50.781,-49.805,-154.297,-22.949,0.000
1757889233.133,-26.367,-50.293,-262.695,-26.367,0.000
1757889233.137,-0.488,-48.828,-24.414,-21.484,0.000
1757889233.141,-26.855,-56.641,43.945,-13.184,0.000
1757889233.145,-50.781,-55.176,-312.988,-11.230,0.000
1757889233.149,-42.969,-47.852,-477.539,-24.902,0.000
1757889233.153,-24.902,-42.480,-235.840,-43.457,0.000
1757889233.157,-22.461,-46.387,-149.414,-34.668,0.000
1757889233.160,-57.617,-52.246,-250.000,-33.691,0.000
1757889233.164,-59.570,-45.898,-154.785,-52.246,0.000
1757889233.168,-25.391,-40.039,7.324,-58.594,0.000
1757889233.172,-28.809,-40.039,-203.125,-51.758,0.000
1757889233.176,-60.059,-42.480,-288.574,-45.410,0.000
1757889233.180,-66.406,-45.898,-172.852,-47.852,0.000
1757889233.184,-40.527,-50.781,-39.062,-42.969,0.000
1757889233.188,-37.598,-53.711,-48.340,-40.527,0.000
1757889233.192,-79.590,-48.828,-295.410,-51.270,0.000
1757889233.196,-82.031,-41.992,-282.715,-54.688,0.000
1757889233.200,-38.574,-38.574,-109.863,-58.594,0.000
1757889233.204,-19.531,-40.039,-260.254,-47.852,0.000
1757889233.207,-43.945,-36.133,-404.785,-43.457,0.000
1757889233.211,-62.988,-27.832,-204.590,-64.941,0.000
1757889233.215,-46.387,-31.738,-123.535,-52.246,0.000
1757889233.219,-18.555,-35.645,-249.512,-33.203,0.000
1757889233.223,-30.273,-37.109,-311.523,-19.043,0.000
1757889233.227,-68.359,-39.551,-255.371,-15.625,0.000
1757889233.231,-61.523,-35.156,-219.238,-31.250,0.000
1757889233.235,-20.996,-31.250,-235.840,-31.250,0.000
1757889233.239,-21.973,-29.785,-286.621,-27.832,0.000
1757889233.243,-63.477,-29.297,-265.625,-37.598,0.000
1757889233.247,-75.195,-27.344,-246.582,-49.316,0.000
1757889233.250,-27.344,-34.668,-424.805,-39.551,0.000
1757889233.254,-6.348,-35.645,-401.855,-26.367,0.000
1757889233.258,-49.316,-25.879,-102.539,-35.645,0.000
1757889233.262,-62.500,-28.809,-214.844,-38.086,0.000
1757889233.266,-10.254,-26.855,-308.594,-17.090,0.000
1757889233.270,20.508,-27.832,-181.641,-8.789,0.000
1757889233.274,-29.297,-38.086,-158.691,-13.672,0.000
1757889233.278,-79.102,-43.457,-242.188,-33.203,0.000
1757889233.282,-57.617,-47.852,-292.969,-54.199,0.000
1757889233.286,-6.348,-44.922,-282.227,-34.668,0.000
1757889233.290,-23.438,-35.645,-289.551,-36.133,0.000
1757889233.293,-60.059,-36.621,-351.562,-43.457,0.000
1757889233.297,-48.828,-39.551,-426.758,-18.066,0.000
1757889233.301,-18.555,-33.691,-196.777,-25.391,0.000
1757889233.305,-26.367,-32.227,34.668,-39.551,0.000
1757889233.309,-64.941,-31.738,-175.781,-40.039,0.000
1757889233.313,-53.223,-25.391,-327.148,-34.668,0.000
1757889233.317,-10.742,-22.461,-172.852,-23.926,0.000
1757889233.321,-9.277,-25.879,-132.812,-29.785,0.000
1757889233.325,-54.199,-19.043,-175.781,-41.016,0.000
1757889233.329,-71.289,-13.672,-263.184,-47.852,0.000
1757889233.333,-22.461,-15.625,-318.848,-41.504,0.000
1757889233.337,-1.953,-20.996,-276.367,-37.598,0.000
1757889233.340,-44.922,-34.668,-442.871,-29.297,0.000
1757889233.344,-67.871,-40.527,-459.961,-14.648,0.000
1757889233.348,-44.922,-35.645,-173.828,-36.133,0.000
1757889233.352,-16.113,-27.344,-198.242,-41.992,0.000
1757889233.356,-33.691,-20.020,-274.414,-57.617,0.000
1757889233.360,-68.359,-22.461,-231.445,-63.477,0.000
1757889233.364,-54.688,-29.297,-154.785,-55.664,0.000
1757889233.368,-6.836,-28.809,-156.738,-45.898,0.000
1757889233.372,-12.695,-34.180,-223.633,-20.020,0.000
1757889233.376,-66.895,-42.969,-243.164,-32.227,0.000
1757889233.379,-78.613,-44.922,-277.344,-35.645,0.000
1757889233.383,-37.109,-41.016,-333.984,-19.043,0.000
1757889233.387,-19.531,-32.715,-298.340,-28.320,0.000
1757889233.391,-63.477,-23.438,-208.008,-45.898,0.000
1757889233.395,-83.008,-19.531,-241.699,-53.711,0.000
1757889233.399,-56.152,-24.414,-394.531,-48.340,0.000
1757889233.403,-22.949,-34.180,-431.152,-33.203,0.000
1757889233.407,-44.922,-32.227,-161.621,-33.691,0.000
1757889233.411,-69.824,-23.438,-143.555,-26.367,0.000
1757889233.415,-53.711,-25.879,-269.043,-19.531,0.000
1757889233.419,-22.949,-26.855,-205.078,-25.879,0.000
1757889233.422,-17.090,-23.926,-59.570,-21.973,0.000
1757889233.426,-46.875,-30.273,-161.133,-28.809,0.000
1757889233.430,-53.223,-38.086,-441.895,-26.855,0.000
1757889233.434,-25.391,-45.898,-432.129,-16.602,0.000
1757889233.438,-24.414,-46.387,-103.516,-37.109,0.000
1757889233.442,-47.363,-44.922,-70.801,-30.273,0.000
1757889233.446,-62.012,-49.316,-269.043,-27.344,0.000
1757889233.450,-43.457,-51.758,-310.547,-38.086,0.000
1757889233.454,-20.996,-50.293,-194.336,-31.250,0.000
1757889233.458,-36.133,-50.781,-223.633,-41.016,0.000
1757889233.462,-63.477,-41.504,-294.434,-49.316,0.000
1757889233.465,-48.828,-43.945,-232.422,-38.086,0.000
1757889233.469,-14.648,-62.012,-122.559,-34.180,0.000
1757889233.473,-30.273,-64.453,-237.793,-38.086,0.000
1757889233.477,-72.754,-63.477,-395.508,-42.969,0.000
1757889233.481,-60.059,-53.223,-211.914,-47.852,0.000
1757889233.485,-37.598,-45.898,-97.168,-61.035,0.000
1757889233.489,-27.832,-56.152,-262.207,-52.246,0.000
1757889233.493,-41.016,-59.082,-350.098,-35.645,0.000
1757889233.497,-69.824,-58.105,-231.445,-54.688,0.000
1757889233.501,-45.410,-57.129,-168.945,-61.035,0.000
1757889233.504,-19.531,-59.082,-273.438,-41.504,0.000
1757889233.508,-44.434,-63.965,-348.145,-52.734,0.000
1757889233.512,-68.848,-59.082,-236.816,-62.500,0.000
1757889233.516,-40.039,-59.082,-224.609,-51.270,0.000
1757889233.520,-14.648,-69.336,-442.383,-37.598,0.000
1757889233.524,-45.410,-69.336,-512.207,-35.645,0.000
1757889233.528,-85.449,-54.688,-251.465,-40.039,0.000
1757889233.532,-64.941,-45.898,-219.238,-45.898,0.000
1757889233.536,-10.742,-45.898,-275.391,-30.273,0.000
1757889233.539,-1.465,-40.527,-213.379,-9.277,0.000
1757889233.543,-36.133,-48.828,-196.777,-19.043,0.000
1757889233.547,-36.133,-65.430,-252.930,-35.156,0.000
1757889233.551,-0.488,-56.641,-271.973,-39.551,0.000
1757889233.555,8.789,-47.363,-189.453,-28.320,0.000
1757889233.559,-42.969,-46.387,-197.266,-40.039,0.000
1757889233.563,-72.266,-47.852,-291.992,-52.246,0.000
1757889233.567,-24.902,-54.199,-325.684,-30.273,0.000
1757889233.571,-7.324,-50.293,-241.699,-18.066,0.000
1757889233.575,-53.223,-53.223,-140.137,-32.227,0.000
1757889233.579,-76.172,-58.105,-257.324,-49.805,0.000
1757889233.582,-53.223,-53.711,-376.465,-49.316,0.000
1757889233.586,-30.273,-46.875,-197.266,-54.688,0.000
1757889233.590,-49.316,-45.898,-139.648,-54.688,0.000
1757889233.594,-62.012,-50.781,-319.336,-47.363,0.000
1757889233.598,-35.645,-46.387,-343.750,-44.922,0.000
1757889233.602,-8.301,-43.457,-154.297,-38.086,0.000
1757889233.606,-26.367,-56.641,-173.340,-38.574,0.000
1757889233.610,-67.383,-58.594,-273.438,-37.109,0.000
1757889233.614,-71.777,-53.711,-324.707,-39.062,0.000
1757889233.618,-25.391,-47.363,-322.266,-40.039,0.000
1757889233.622,-26.367,-42.480,-262.207,-32.715,0.000
1757889233.626,-68.359,-56.152,-436.523,-41.016,0.000
1757889233.629,-71.777,-63.477,-440.430,-37.109,0.000
1757889233.633,-34.668,-52.734,-135.254,-42.480,0.000
1757889233.637,-2.930,-52.734,-72.266,-44.922,0.000
1757889233.641,-29.297,-55.176,-190.918,-34.668,0.000
1757889233.645,-57.617,-47.852,-237.793,-44.434,0.000
1757889233.649,-32.715,-41.504,-125.977,-45.898,0.000
1757889233.653,4.883,-44.434,-166.016,-27.344,0.000
1757889233.657,-17.578,-46.387,-320.312,-21.973,0.000
1757889233.661,-43.457,-44.922,-348.145,-36.133,0.000
1757889233.665,-18.066,-35.645,-258.301,-29.297,0.000
1757889233.669,1.953,-43.945,-240.723,-15.137,0.000
1757889233.672,-12.207,-61.035,-344.727,-27.832,0.000
1757889233.676,-43.945,-46.875,-286.621,-42.969,0.000
1757889233.680,-58.105,-33.691,-156.250,-65.918,0.000
1757889233.684,-23.438,-40.039,-305.664,-56.641,0.000
1757889233.688,-9.766,-41.504,-450.195,-24.414,0.000
1757889233.692,-35.156,-33.691,-197.266,-29.785,0.000
1757889233.696,-53.711,-38.086,-177.246,-27.344,0.000
1757889233.700,-42.480,-45.898,-257.324,-34.180,0.000
1757889233.704,-15.625,-48.340,-207.520,-46.387,0.000
1757889233.708,-29.297,-48.828,-271.973,-46.387,0.000
1757889233.712,-67.383,-50.781,-285.645,-54.199,0.000
1757889233.715,-52.734,-55.664,-422.363,-39.062,0.000
1757889233.719,-16.602,-55.176,-410.156,-21.973,0.000
1757889233.723,-32.227,-61.523,18.555,-31.250,0.000
1757889233.727,-75.195,-74.707,27.344,-19.043,0.000
1757889233.731,-72.266,-70.312,-208.008,-12.207,0.000
1757889233.735,-28.809,-59.570,-124.023,-34.668,0.000
1757889233.739,-23.438,-50.293,62.988,-50.781,0.000
1757889233.743,-60.059,-49.316,-40.527,-47.363,0.000
1757889233.747,-73.730,-56.641,-215.332,-37.598,0.000
1757889233.751,-46.387,-60.059,-107.910,-42.480,0.000
1757889233.755,-20.508,-61.523,-135.254,-44.922,0.000
1757889233.758,-50.293,-63.965,-314.453,-43.457,0.000
1757889233.762,-66.406,-60.547,-363.281,-37.109,0.000
1757889233.766,-36.621,-55.664,-167.969,-30.273,0.000
1757889233.770,-25.879,-60.547,95.703,-34.668,0.000
1757889233.774,-56.641,-70.801,-75.684,-43.945,0.000
1757889233.778,-76.172,-64.941,-265.137,-40.039,0.000
1757889233.782,-45.410,-47.852,17.090,-46.875,0.000
1757889233.786,-15.625,-46.875,-39.551,-48.340,0.000
1757889233.790,-37.109,-47.363,-292.480,-51.270,0.000
1757889233.794,-57.129,-58.594,-179.199,-45.410,0.000
1757889233.797,-46.875,-1.465,8.301,-24.902,0.000
1757889233.801,-20.996,90.820,-93.750,-11.230,0.000
1757889233.805,-37.598,75.195,-378.906,-12.695,0.000
1757889233.809,-86.426,47.852,-437.012,-36.621,0.000
1757889233.813,-89.355,49.805,-104.492,-59.082,0.000
1757889233.817,-49.316,50.293,37.598,-47.363,0.000
1757889233.821,-31.738,41.992,-103.027,-38.086,0.000
1757889233.825,-63.477,32.227,-163.086,-48.828,0.000
1757889233.829,-84.961,29.297,16.602,-49.805,0.000
1757889233.833,-44.922,24.414,25.879,-40.039,0.000
1757889233.837,1.953,19.531,-145.020,-21.973,0.000
1757889233.840,-30.762,11.230,-159.180,-12.207,0.000
1757889233.844,-59.082,1.953,-177.734,-13.672,0.000
1757889233.848,-43.457,-1.465,-269.043,-14.648,0.000
1757889233.852,-28.320,-6.836,-320.801,-6.348,0.000
1757889233.856,-28.320,-8.301,-177.246,-22.461,0.000
1757889233.860,-67.383,-9.766,-82.520,-37.109,0.000
1757889233.864,-73.730,-12.695,-220.703,-21.973,0.000
1757889233.868,-35.156,-21.973,-277.344,-36.133,0.000
1757889233.872,-27.832,-24.414,-96.680,-37.598,0.000
1757889233.876,-52.246,-19.043,13.672,-23.926,0.000
1757889233.879,-61.035,-20.996,-187.500,-29.297,0.000
1757889233.883,-39.062,-26.855,-222.168,-43.457,0.000
1757889233.887,-24.902,-37.109,30.762,-56.152,0.000
1757889233.891,-63.965,-37.109,8.789,-56.641,0.000
1757889233.895,-93.750,-31.250,-310.059,-64.941,0.000
1757889233.899,-75.195,-29.297,-395.996,-76.660,0.000
1757889233.903,-41.992,-31.250,-223.633,-69.336,0.000
1757889233.907,-40.527,-34.668,-276.367,-48.828,0.000
1757889233.911,-66.895,-33.691,-322.754,-38.574,0.000
1757889233.914,-65.430,-32.227,-214.355,-48.340,0.000
1757889233.918,-39.551,-36.133,-38.086,-52.734,0.000
1757889233.922,-46.875,-41.504,-2.930,-54.199,0.000
1757889233.926,-76.172,-40.039,-194.336,-58.594,0.000
1757889233.930,-79.102,-41.016,-174.805,-48.828,0.000
1757889233.934,-46.387,-42.480,-26.855,-42.969,0.000
1757889233.938,-32.715,-45.410,-54.199,-54.199,0.000
1757889233.942,-58.594,-51.758,-248.047,-48.340,0.000
1757889233.946,-74.219,-47.852,-253.906,-31.250,0.000
1757889233.950,-34.668,-41.504,-87.402,-29.785,0.000
1757889233.954,4.395,-41.504,-176.270,-36.621,0.000
1757889233.957,-28.320,-47.852,-371.094,-49.805,0.000
1757889233.961,-73.242,-48.340,-115.234,-63.965,0.000
1757889233.965,-55.664,-47.852,83.496,-51.758,0.000
1757889233.969,-23.438,-54.688,-126.953,-31.738,0.000
1757889233.973,-36.621,-56.152,-295.410,-29.785,0.000
1757889233.977,-66.406,-57.129,-162.598,-38.086,0.000
1757889233.981,-66.406,-57.617,-118.164,-50.781,0.000
1757889233.985,-31.738,-62.012,-217.773,-43.945,0.000
1757889233.989,-34.180,-67.383,-306.641,-52.246,0.000
1757889233.993,-74.707,-60.547,-284.180,-77.148,0.000
1757889233.997,-78.125,-59.570,-253.906,-64.941,0.000
1757889234.000,-47.363,-71.289,-431.641,-48.340,0.000
1757889234.004,-40.039,-75.195,-402.344,-61.523,0.000
1757889234.008,-82.031,-67.383,-165.527,-76.172,0.000
1757889234.012,-93.750,-67.383,-257.324,-66.895,0.000
1757889234.016,-43.945,-71.777,-294.434,-41.992,0.000
1757889234.020,-21.973,-65.918,-104.980,-33.203,0.000
1757889234.024,-63.965,-59.082,52.246,-48.340,0.000
1757889234.028,-92.285,-63.477,-86.426,-50.781,0.000
1757889234.032,-64.941,-62.500,-227.539,-46.875,0.000
1757889234.036,-28.320,-66.406,-273.438,-41.992,0.000
1757889234.040,-44.434,-67.871,-226.562,-51.758,0.000
1757889234.043,-72.266,-59.082,-256.348,-54.199,0.000
1757889234.047,-58.105,-58.105,-378.418,-56.641,0.000
1757889234.051,-23.926,-61.035,-121.094,-65.430,0.000
1757889234.055,-12.695,-60.547,85.449,-44.922,0.000
1757889234.059,-49.805,-61.035,-151.855,-41.016,0.000
1757889234.063,-68.848,-70.801,-362.793,-53.223,0.000
1757889234.067,-41.016,-75.684,-219.238,-54.688,0.000
1757889234.071,-23.926,-65.918,-47.852,-44.434,0.000
1757889234.075,-66.406,-67.383,-129.883,-48.340,0.000
1757889234.079,-95.215,-74.219,-270.020,-69.336,0.000
1757889234.083,-62.988,-74.707,-265.625,-81.543,0.000
1757889234.086,-40.039,-74.219,-224.609,-67.383,0.000
1757889234.090,-67.383,-78.613,-416.992,-58.594,0.000
1757889234.094,-103.027,-77.637,-446.777,-62.500,0.000
1757889234.098,-91.797,-70.801,-129.395,-66.895,0.000
1757889234.102,-46.387,-69.824,-79.590,-58.105,0.000
1757889234.106,-36.133,-70.801,-178.223,-53.711,0.000
1757889234.110,-81.543,-70.801,-173.828,-63.965,0.000
1757889234.114,-83.496,-68.848,-99.121,-54.199,0.000
1757889234.118,-38.574,-65.430,-160.156,-33.691,0.000
1757889234.122,-26.855,-60.547,-274.414,-28.809,0.000
1757889234.126,-40.039,-50.781,-191.406,-50.293,0.000
1757889234.129,-65.430,-54.688,-216.797,-44.922,0.000
1757889234.133,-43.457,-65.918,-328.125,-30.273,0.000
1757889234.137,-5.859,-54.199,-343.262,-14.648,0.000
1757889234.141,-48.828,-33.691,-187.012,-47.363,0.000
1757889234.145,-70.312,-33.203,-93.262,-71.289,0.000
1757889234.149,-25.879,-39.062,-234.375,-40.527,0.000
1757889234.153,1.465,-39.062,-279.785,-27.832,0.000
1757889234.157,-33.691,-47.852,-143.555,-35.645,0.000
1757889234.161,-70.312,-59.570,-115.723,-52.246,0.000
1757889234.165,-58.594,-59.570,-226.562,-53.223,0.000
1757889234.169,-36.133,-56.152,-231.445,-44.922,0.000
1757889234.172,-41.016,-50.293,-140.137,-53.711,0.000
1757889234.176,-86.914,-46.387,-239.258,-76.660,0.000
1757889234.180,-96.191,-58.105,-417.480,-67.871,0.000
1757889234.184,-31.250,-65.430,-464.844,-28.809,0.000
1757889234.188,-16.602,-59.082,-176.270,-35.645,0.000
1757889234.192,-70.801,-57.129,-95.215,-49.805,0.000
1757889234.196,-83.984,-55.664,-241.211,-49.316,0.000
1757889234.200,-53.223,-57.129,-208.496,-51.270,0.000
1757889234.204,-25.879,-56.641,-3.906,-53.711,0.000
1757889234.208,-45.410,-48.828,-33.691,-59.082,0.000
1757889234.212,-72.266,-49.805,-250.000,-47.363,0.000
1757889234.215,-60.059,-63.477,-202.637,-49.316,0.000
1757889234.219,-28.809,-65.918,-119.141,-47.852,0.000
1757889234.223,-47.363,-64.941,-278.809,-31.250,0.000
1757889234.227,-84.473,-67.383,-362.793,-40.527,0.000
1757889234.231,-83.008,-66.895,-240.234,-54.199,0.000
1757889234.235,-55.176,-68.848,-205.078,-69.336,0.000
1757889234.239,-46.875,-65.918,-273.926,-78.613,0.000
1757889234.243,-92.773,-65.918,-337.402,-81.543,0.000
1757889234.247,-101.562,-57.617,-182.617,-78.613,0.000
1757889234.251,-47.852,-46.387,-97.656,-59.570,0.000
1757889234.254,-29.297,-51.758,-218.262,-48.340,0.000
1757889234.258,-62.988,-60.547,-295.898,-61.035,0.000
1757889234.262,-104.492,-67.383,-134.766,-53.711,0.000
1757889234.266,-75.195,-64.453,-165.039,-49.805,0.000
1757889234.270,-42.480,-62.012,-290.527,-62.988,0.000
1757889234.274,-86.914,-65.430,-301.270,-73.730,0.000
1757889234.278,-109.863,-58.594,-271.484,-85.449,0.000
1757889234.282,-78.613,-48.828,-139.648,-72.266,0.000
1757889234.286,-38.574,-60.547,-336.426,-44.922,0.000
1757889234.289,-49.805,-68.359,-477.051,-43.457,0.000
1757889234.293,-85.449,-51.270,-215.332,-63.965,0.000
1757889234.298,-71.289,-44.922,-205.078,-46.875,0.000
1757889234.301,-30.273,-50.781,-244.141,-43.457,0.000
1757889234.305,-26.367,-46.875,-175.293,-53.711,0.000
1757889234.309,-56.641,-41.992,-176.270,-53.223,0.000
1757889234.313,-49.316,-41.016,-252.930,-49.805,0.000
1757889234.317,-18.555,-46.387,-317.383,-41.992,0.000
1757889234.321,-9.277,-49.805,-273.438,-36.133,0.000
1757889234.325,-43.457,-50.293,-199.707,-40.527,0.000
1757889234.329,-84.961,-53.223,-310.547,-41.504,0.000
1757889234.333,-53.711,-42.969,-389.160,-32.227,0.000
1757889234.336,-4.395,-23.926,-154.297,-24.414,0.000
1757889234.340,-16.602,-27.344,-104.492,-30.273,0.000
1757889234.344,-69.336,-44.922,-338.867,-48.828,0.000
1757889234.348,-72.266,-58.105,-354.492,-45.898,0.000
1757889234.352,-20.996,-55.176,-122.070,-32.715,0.000
1757889234.356,-15.137,-42.969,-52.246,-35.156,0.000
1757889234.360,-62.988,-38.086,-233.887,-58.594,0.000
1757889234.364,-79.590,-41.992,-343.262,-61.523,0.000
1757889234.368,-44.434,-40.039,-283.691,-40.527,0.000
1757889234.372,-38.574,-42.480,-273.438,-48.340,0.000
1757889234.376,-71.289,-45.410,-407.715,-63.965,0.000
1757889234.379,-83.008,-39.551,-375.488,-64.453,0.000
1757889234.383,-54.199,-37.598,-94.727,-48.340,0.000
1757889234.387,-33.691,-43.457,-19.531,-35.645,0.000
1757889234.391,-58.594,-52.246,-306.641,-35.645,0.000
1757889234.395,-93.750,-59.570,-312.500,-44.922,0.000
1757889234.399,-78.125,-62.012,-175.781,-52.246,0.000
1757889234.403,-33.203,-61.523,-294.922,-45.898,0.000
1757889234.407,-33.203,-59.082,-282.227,-44.434,0.000
1757889234.411,-75.195,-58.105,-318.359,-48.340,0.000
1757889234.415,-71.289,-61.523,-266.113,-42.969,0.000
1757889234.419,-25.391,-64.453,-267.090,-35.645,0.000
1757889234.422,-32.715,-64.941,-382.812,-52.246,0.000
1757889234.426,-89.844,-60.547,-211.426,-80.078,0.000
1757889234.430,-91.309,-58.105,-97.168,-75.195,0.000
1757889234.434,-29.297,-62.500,-234.375,-46.875,0.000
1757889234.438,-10.254,-65.918,-292.480,-27.832,0.000
1757889234.442,-45.898,-68.359,-122.559,-30.273,0.000
1757889234.446,-62.012,-73.242,-122.070,-26.855,0.000
1757889234.450,-44.434,-69.336,-227.539,-34.668,0.000
1757889234.454,-21.973,-62.988,-269.531,-35.645,0.000
1757889234.458,-38.574,-68.359,-293.457,-31.738,0.000
1757889234.462,-72.754,-72.266,-261.719,-51.270,0.000
1757889234.465,-56.641,-72.266,-416.992,-47.363,0.000
1757889234.469,-32.227,-74.707,-391.602,-36.133,0.000
1757889234.473,-58.594,-75.684,-1.953,-45.410,0.000
1757889234.477,-82.520,-68.848,-32.715,-57.129,0.000
1757889234.481,-72.266,-63.965,-218.750,-54.199,0.000
1757889234.485,-29.297,-65.430,-105.957,-44.922,0.000
1757889234.489,-23.438,-63.477,13.672,-44.922,0.000
1757889234.493,-61.523,-67.871,-195.801,-44.434,0.000
1757889234.497,-66.406,-65.918,-286.621,-48.828,0.000
1757889234.501,-32.227,-60.059,-216.797,-48.828,0.000
1757889234.504,-10.742,-67.383,-267.090,-38.086,0.000
1757889234.508,-41.992,-65.430,-325.684,-41.016,0.000
1757889234.512,-68.848,-44.922,-395.508,-49.805,0.000
1757889234.516,-48.828,-14.160,-232.910,-53.711,0.000
1757889234.520,-12.207,6.348,-41.504,-43.457,0.000
1757889234.524,-20.020,9.766,-217.773,-32.227,0.000
1757889234.528,-56.641,3.418,-345.703,-34.180,0.000
1757889234.532,-58.594,1.465,-180.176,-37.598,0.000
1757889234.536,-29.785,7.324,-116.211,-37.598,0.000
1757889234.540,-26.367,1.465,-245.605,-35.156,0.000
1757889234.544,-62.012,-8.789,-285.156,-38.086,0.000
1757889234.547,-57.129,-4.395,-188.477,-32.715,0.000
1757889234.551,-17.578,-2.930,-203.613,-44.922,0.000
1757889234.555,-25.391,-16.113,-411.621,-49.316,0.000
1757889234.559,-58.594,-19.531,-449.707,-39.551,0.000
1757889234.563,-69.824,-11.230,-161.133,-53.711,0.000
1757889234.567,-42.480,-12.695,-151.367,-67.871,0.000
1757889234.571,-26.367,-17.090,-220.703,-73.730,0.000
1757889234.575,-52.734,-19.043,-207.031,-73.730,0.000
1757889234.579,-67.383,-17.578,-143.066,-58.105,0.000
1757889234.583,-40.527,-29.297,-185.059,-41.016,0.000
1757889234.586,-9.766,-41.016,-249.512,-33.203,0.000
1757889234.590,-31.738,-41.016,-164.551,-37.598,0.000
1757889234.594,-64.453,-38.086,-183.105,-31.250,0.000
1757889234.598,-55.664,-41.016,-300.293,-37.598,0.000
1757889234.602,-20.020,-46.387,-370.605,-42.480,0.000
1757889234.606,-17.090,-40.039,-249.023,-36.133,0.000
1757889234.610,-47.852,-34.180,-132.324,-38.086,0.000
1757889234.614,-62.012,-48.340,-280.762,-26.367,0.000
1757889234.618,-37.109,-56.152,-306.152,-24.414,0.000
1757889234.622,-18.555,-56.641,-172.363,-35.645,0.000
1757889234.626,-63.965,-65.918,-263.672,-49.805,0.000
1757889234.629,-82.520,-71.777,-363.281,-39.062,0.000
1757889234.633,-37.598,-66.895,-287.109,-37.109,0.000
1757889234.637,-25.879,-57.617,-54.688,-43.945,0.000
1757889234.641,-69.824,-49.316,-41.992,-52.246,0.000
1757889234.645,-87.402,-58.594,-346.191,-65.430,0.000
1757889234.649,-45.410,-64.453,-447.266,-47.363,0.000
1757889234.653,-14.648,-59.570,-231.934,-39.551,0.000
1757889234.657,-35.645,-63.965,-187.012,-50.293,0.000
1757889234.661,-84.961,-74.707,-352.051,-42.480,0.000
1757889234.664,-75.195,-66.406,-281.738,-50.781,0.000
1757889234.668,-35.156,-51.270,-98.145,-61.035,0.000
1757889234.672,-30.273,-56.152,-88.379,-37.598,0.000
1757889234.676,-55.176,-57.617,-235.352,-20.996,0.000
1757889234.680,-68.848,-67.383,-304.199,-24.902,0.000
1757889234.684,-34.668,-75.195,-179.688,-29.785,0.000
1757889234.688,-21.484,-68.359,-195.801,-34.668,0.000
1757889234.692,-65.918,-62.988,-328.613,-37.598,0.000
1757889234.696,-84.961,-54.688,-284.180,-31.250,0.000
1757889234.700,-49.805,-47.363,-187.988,-33.203,0.000
1757889234.704,-20.020,-55.176,-287.598,-39.551,0.000
1757889234.707,-28.320,-57.129,-366.211,-29.785,0.000
1757889234.711,-57.617,-41.016,-259.277,-34.180,0.000
1757889234.715,-45.898,-34.180,-199.707,-33.691,0.000
1757889234.719,8.789,-36.621,-277.344,-7.324,0.000
1757889234.723,-2.930,-38.086,-374.512,-23.926,0.000
1757889234.727,-68.848,-42.480,-220.703,-45.410,0.000
1757889234.731,-65.430,-47.363,-192.383,-38.574,0.000
1757889234.735,-28.320,-49.805,-231.934,-46.387,0.000
1757889234.739,-35.645,-48.828,-280.762,-41.504,0.000
1757889234.743,-65.430,-50.781,-299.805,-40.527,0.000
1757889234.747,-70.312,-47.363,-270.996,-46.387,0.000
1757889234.750,-26.367,-49.316,-454.102,-32.715,0.000
1757889234.754,-18.555,-62.988,-467.285,-31.738,0.000
1757889234.758,-53.223,-66.895,-116.211,-41.504,0.000
1757889234.762,-75.684,-62.500,-179.688,-49.316,0.000
1757889234.766,-72.754,-55.664,-253.906,-57.129,0.000
1757889234.770,-37.598,-54.688,-161.621,-36.133,0.000
1757889234.774,-38.574,-60.547,-142.578,-24.902,0.000
1757889234.778,-66.895,-61.523,-247.559,-31.738,0.000
1757889234.782,-67.871,-65.918,-330.566,-41.504,0.000
1757889234.786,-39.062,-77.148,-275.879,-37.598,0.000
1757889234.790,-22.949,-80.078,-250.000,-25.879,0.000
1757889234.794,-54.199,-73.730,-325.684,-30.273,0.000
1757889234.797,-70.801,-85.938,-391.113,-24.902,0.000
1757889234.801,-48.828,-90.820,-140.625,-33.691,0.000
1757889234.805,-35.156,-89.355,67.383,-39.551,0.000
1757889234.809,-63.965,-101.074,-166.992,-37.598,0.000
1757889234.813,-77.637,-94.238,-315.918,-46.387,0.000
1757889234.817,-42.969,-80.078,-123.047,-39.551,0.000
1757889234.821,-30.762,-77.637,-17.578,-37.598,0.000
1757889234.825,-72.754,-75.684,-158.203,-62.988,0.000
1757889234.829,-98.633,-71.777,-295.410,-71.289,0.000
1757889234.833,-62.500,-67.383,-263.184,-59.570,0.000
1757889234.837,-21.973,-68.848,-282.227,-47.852,0.000
1757889234.840,-48.340,-77.637,-320.801,-50.781,0.000
1757889234.844,-90.820,-72.266,-290.039,-64.453,0.000
1757889234.848,-77.148,-62.500,-263.672,-61.523,0.000
1757889234.852,-36.621,-61.035,-194.824,-45.898,0.000
1757889234.856,-28.320,-64.941,-394.531,-34.668,0.000
1757889234.860,-67.871,-63.477,-422.363,-37.109,0.000
1757889234.864,-62.012,-62.500,-149.902,-38.574,0.000
1757889234.868,-23.926,-69.824,-230.469,-41.016,0.000
1757889234.872,-25.391,-65.918,-260.254,-30.762,0.000
1757889234.876,-56.152,-65.430,-235.352,-25.391,0.000
1757889234.880,-69.824,-77.637,-276.367,-33.203,0.000
1757889234.883,-49.805,-86.914,-313.965,-42.480,0.000
1757889234.887,-31.738,-90.332,-336.914,-40.039,0.000
1757889234.891,-61.035,-80.566,-202.148,-48.828,0.000
1757889234.895,-90.332,-66.895,-128.906,-57.129,0.000
1757889234.899,-59.082,-70.801,-266.113,-52.734,0.000
1757889234.903,-27.832,-74.219,-377.930,-59.082,0.000
1757889234.907,-46.387,-64.453,-208.008,-54.199,0.000
1757889234.911,-77.637,-63.477,-123.047,-49.316,0.000
1757889234.915,-65.430,-68.359,-280.273,-46.875,0.000
1757889234.919,-29.785,-66.406,-258.301,-50.781,0.000
1757889234.922,-18.555,-62.500,-167.480,-43.945,0.000
1757889234.926,-48.340,-67.383,-259.277,-35.156,0.000
1757889234.930,-66.895,-75.684,-437.012,-32.715,0.000
1757889234.934,-40.527,-79.102,-444.336,-30.762,0.000
1757889234.938,-27.832,-74.219,-167.969,-47.363,0.000
1757889234.942,-56.152,-66.406,-209.961,-54.199,0.000
1757889234.946,-75.684,-64.453,-293.945,-57.129,0.000
1757889234.950,-49.316,-60.547,-217.773,-52.734,0.000
1757889234.954,-11.719,-53.223,-133.301,-41.504,0.000
1757889234.958,-25.879,-51.758,-217.773,-34.180,0.000
1757889234.962,-53.223,-58.105,-316.895,-25.879,0.000
1757889234.965,-44.434,-62.012,-209.473,-24.414,0.000
1757889234.969,-17.578,-56.641,-164.551,-26.855,0.000
1757889234.973,-28.320,-56.641,-282.715,-30.273,0.000
1757889234.977,-72.266,-59.570,-408.691,-35.645,0.000
1757889234.981,-73.730,-54.688,-267.090,-49.805,0.000
1757889234.985,-31.250,-51.270,-108.398,-45.898,0.000
1757889234.989,-14.160,-55.664,-234.375,-34.180,0.000
1757889234.993,-57.129,-46.875,-308.594,-40.039,0.000
1757889234.997,-67.871,-38.574,-233.398,-51.758,0.000
1757889235.001,-31.738,-40.527,-112.305,-46.387,0.000
1757889235.004,-27.344,-42.480,-210.449,-40.039,0.000
1757889235.008,-68.848,-46.875,-325.195,-47.852,0.000
1757889235.012,-80.078,-48.828,-175.781,-45.898,0.000
1757889235.016,-44.922,-55.664,-200.195,-39.062,0.000
1757889235.020,-16.602,-61.523,-395.996,-42.969,0.000
1757889235.024,-41.016,-55.664,-488.281,-41.504,0.000
1757889235.028,-88.379,-48.340,-286.621,-54.199,0.000
1757889235.032,-76.660,-41.504,-230.469,-61.523,0.000
1757889235.036,-37.109,-38.574,-268.555,-47.852,0.000
1757889235.039,-29.785,-37.598,-223.145,-41.016,0.000
1757889235.043,-65.430,-37.598,-84.961,-36.133,0.000
1757889235.047,-67.383,-44.922,-83.984,-41.992,0.000
1757889235.051,-27.344,-50.781,-231.445,-46.875,0.000
1757889235.055,-21.484,-53.223,-209.961,-31.250,0.000
1757889235.059,-64.453,-45.898,-205.566,-31.738,0.000
1757889235.063,-79.590,-44.434,-271.973,-55.176,0.000
1757889235.067,-38.574,-52.246,-306.152,-47.852,0.000
1757889235.071,-8.301,-48.828,-295.410,-37.109,0.000
1757889235.075,-39.062,-44.922,-207.031,-47.852,0.000
1757889235.079,-80.078,-45.898,-260.742,-54.688,0.000
1757889235.083,-56.152,-42.480,-385.742,-41.016,0.000
1757889235.086,-20.020,-32.227,-206.055,-41.504,0.000
1757889235.090,-20.996,-26.367,-120.117,-45.410,0.000
1757889235.094,-46.875,-32.715,-291.992,-35.156,0.000
1757889235.098,-56.152,-35.156,-345.215,-36.133,0.000
1757889235.102,-20.508,-35.156,-177.246,-39.062,0.000
1757889235.106,-8.789,-44.922,-191.895,-47.363,0.000
1757889235.110,-48.340,-52.734,-291.992,-42.969,0.000
1757889235.114,-64.941,-44.434,-334.961,-37.109,0.000
1757889235.118,-28.320,-39.062,-307.617,-33.691,0.000
1757889235.122,-17.578,-38.574,-255.859,-36.621,0.000
1757889235.126,-54.199,-40.527,-456.055,-33.203,0.000
1757889235.129,-78.613,-41.992,-473.633,-38.574,0.000
1757889235.133,-41.016,-38.574,-178.711,-42.969,0.000
1757889235.137,-7.324,-41.992,-279.297,-42.969,0.000
1757889235.141,-42.480,-36.621,-323.242,-48.828,0.000
1757889235.145,-75.195,-29.785,-208.008,-45.410,0.000
1757889235.149,-60.547,-37.109,-128.418,-39.551,0.000
1757889235.153,-35.156,-45.410,-175.293,-44.434,0.000
1757889235.157,-53.223,-42.480,-257.324,-62.012,0.000
1757889235.161,-82.520,-45.410,-324.707,-62.988,0.000
1757889235.165,-71.777,-54.199,-283.203,-60.059,0.000
1757889235.169,-30.273,-55.176,-235.840,-55.176,0.000
1757889235.172,-11.719,-50.293,-363.770,-37.598,0.000
1757889235.176,-47.852,-45.410,-189.453,-34.180,0.000
1757889235.180,-54.199,-46.387,-125.488,-37.598,0.000
1757889235.184,-8.789,-45.410,-315.430,-34.668,0.000
1757889235.188,8.789,-41.016,-288.574,-24.414,0.000
1757889235.192,-30.762,-44.922,-140.625,-18.555,0.000
1757889235.196,-64.453,-59.082,-165.527,-27.344,0.000
1757889235.200,-38.086,-61.523,-247.559,-20.996,0.000
1757889235.204,12.207,-56.641,-250.488,-3.906,0.000
1757889235.208,-20.996,-50.781,-255.859,-17.578,0.000
1757889235.212,-79.102,-53.711,-260.254,-34.668,0.000
1757889235.215,-64.941,-70.801,-429.199,-39.062,0.000
1757889235.219,-29.785,-66.895,-451.172,-37.109,0.000
1757889235.223,-21.973,-49.316,-58.594,-30.762,0.000
1757889235.227,-51.270,-51.270,-99.609,-34.180,0.000
1757889235.231,-63.477,-54.199,-268.066,-43.457,0.000
1757889235.235,-30.762,-55.176,-197.266,-47.852,0.000
1757889235.239,-21.484,-62.012,-203.613,-44.922,0.000
1757889235.243,-73.730,-67.383,-321.289,-56.152,0.000
1757889235.247,-80.078,-62.988,-293.457,-69.824,0.000
1757889235.251,-33.691,-58.105,-168.457,-63.477,0.000
1757889235.254,-20.020,-60.547,-215.332,-51.270,0.000
1757889235.258,-49.805,-58.105,-333.984,-42.480,0.000
1757889235.262,-75.684,-58.105,-408.691,-41.504,0.000
1757889235.266,-64.941,-59.082,-263.672,-42.480,0.000
1757889235.270,-25.391,-50.781,-66.406,-32.227,0.000
1757889235.274,-33.691,-53.223,-191.895,-30.762,0.000
1757889235.278,-73.730,-55.664,-309.082,-52.246,0.000
1757889235.282,-62.012,-47.852,-158.691,-48.340,0.000
1757889235.286,-13.672,-48.340,-11.719,-37.109,0.000
1757889235.290,-8.301,-50.781,-156.738,-24.414,0.000
1757889235.294,-52.246,-46.875,-385.254,-26.367,0.000
1757889235.297,-58.594,-41.016,-299.316,-35.156,0.000
1757889235.301,-25.391,-38.086,-221.680,-29.297,0.000
1757889235.305,-17.090,-41.016,-367.676,-10.742,0.000
1757889235.309,-46.387,-47.363,-423.828,-14.648,0.000
1757889235.313,-73.242,-41.992,-153.320,-34.180,0.000
1757889235.317,-37.598,-41.016,-101.562,-30.762,0.000
1757889235.321,-11.230,-48.340,-190.430,-20.020,0.000
1757889235.325,-52.246,-45.410,-175.293,-35.156,0.000
1757889235.329,-85.938,-34.668,-147.949,-56.641,0.000
1757889235.333,-56.641,-38.086,-145.020,-47.852,0.000
1757889235.336,-16.602,-44.922,-185.059,-43.457,0.000
1757889235.340,-45.410,-47.363,-176.270,-54.199,0.000
1757889235.344,-90.332,-59.570,-189.941,-61.035,0.000
1757889235.348,-77.637,-67.871,-312.500,-48.828,0.000
1757889235.352,-46.875,-62.500,-409.668,-53.711,0.000
1757889235.356,-46.875,-51.270,-319.336,-55.664,0.000
1757889235.360,-83.984,-43.945,-160.156,-60.547,0.000
1757889235.364,-93.262,-42.969,-288.086,-60.059,0.000
1757889235.368,-58.105,-47.852,-309.570,-45.898,0.000
1757889235.371,-36.133,-51.758,-137.695,-49.316,0.000
1757889235.375,-48.828,-51.270,-146.484,-42.480,0.000
1757889235.379,-66.406,-47.852,-292.480,-37.598,0.000
1757889235.383,-55.664,-44.434,-337.402,-41.016,0.000
1757889235.387,-24.902,-52.246,-185.547,-41.992,0.000
1757889235.391,-41.016,-59.570,-182.617,-46.875,0.000
1757889235.395,-73.242,-55.176,-428.223,-49.805,0.000
1757889235.399,-46.875,-46.875,-489.746,-37.598,0.000
1757889235.403,-5.859,-37.109,-249.023,-39.062,0.000
1757889235.407,-20.508,-35.156,-264.648,-50.781,0.000
1757889235.411,-62.988,-43.945,-337.402,-55.664,0.000
1757889235.414,-62.500,-46.875,-228.516,-62.012,0.000
1757889235.418,-21.973,-44.434,-125.977,-58.594,0.000
1757889235.422,-31.738,-48.340,-166.504,-63.477,0.000
1757889235.426,-73.242,-49.805,-265.625,-66.895,0.000
1757889235.430,-82.520,-50.293,-220.703,-61.523,0.000
1757889235.434,-43.457,-50.293,-148.438,-52.734,0.000
1757889235.438,-27.832,-44.922,-201.660,-58.594,0.000
1757889235.442,-62.012,-42.969,-343.262,-59.570,0.000
1757889235.446,-83.496,-44.434,-290.039,-56.641,0.000
1757889235.450,-65.918,-45.410,-153.320,-49.316,0.000
1757889235.454,-23.438,-46.875,-237.305,-30.762,0.000
1757889235.457,-41.016,-45.898,-384.277,-27.344,0.000
1757889235.461,-81.055,-37.598,-326.660,-39.551,0.000
1757889235.465,-68.359,-36.133,-264.648,-41.016,0.000
1757889235.469,-28.320,-37.109,-308.594,-34.180,0.000
1757889235.473,-20.996,-30.273,-309.082,-30.273,0.000
1757889235.477,-52.246,-28.809,-212.402,-34.668,0.000
1757889235.481,-52.734,-34.668,-217.285,-40.039,0.000
1757889235.485,-30.762,-45.898,-255.859,-44.922,0.000
1757889235.489,-28.809,-51.758,-331.055,-40.039,0.000
1757889235.493,-66.406,-41.992,-315.918,-45.898,0.000
1757889235.497,-81.543,-36.133,-279.297,-55.176,0.000
1757889235.500,-30.273,-43.945,-433.594,-31.738,0.000
1757889235.504,-0.488,-43.457,-417.480,-17.578,0.000
1757889235.508,-31.738,-36.621,-109.863,-31.250,0.000
1757889235.512,-69.824,-34.668,-190.430,-45.898,0.000
1757889235.516,-47.852,-35.645,-306.641,-49.316,0.000
1757889235.520,-14.648,-43.945,-262.695,-37.109,0.000
1757889235.524,-30.762,-42.480,-171.387,-28.320,0.000
1757889235.528,-72.754,-36.621,-222.656,-49.805,0.000
1757889235.532,-64.453,-34.668,-298.340,-51.758,0.000
1757889235.536,-14.648,-34.668,-313.477,-28.320,0.000
1757889235.540,-20.508,-44.922,-234.375,-31.250,0.000
1757889235.543,-64.941,-49.316,-248.535,-35.156,0.000
1757889235.547,-63.477,-35.645,-394.043,-30.273,0.000
1757889235.551,-23.926,-23.438,-143.555,-22.461,0.000
1757889235.555,-11.230,-27.344,48.828,-21.484,0.000
1757889235.559,-44.922,-34.180,-260.742,-29.297,0.000
1757889235.563,-63.965,-35.645,-381.836,-29.297,0.000
1757889235.567,-20.996,-30.762,-130.859,-22.461,0.000
1757889235.571,12.207,-36.133,-47.852,-16.113,0.000
1757889235.575,-30.762,-41.016,-184.570,-26.367,0.000
1757889235.579,-69.336,-38.086,-300.781,-41.504,0.000
1757889235.583,-46.875,-39.062,-258.789,-32.715,0.000
1757889235.586,-20.508,-41.016,-250.977,-32.715,0.000
1757889235.590,-27.344,-44.922,-432.617,-26.855,0.000
1757889235.594,-57.617,-39.062,-454.102,-25.391,0.000
1757889235.598,-58.105,-30.273,-139.160,-47.852,0.000
1757889235.602,-19.531,-38.574,-59.570,-41.016,0.000
1757889235.606,-20.996,-45.898,-182.617,-34.668,0.000
1757889235.610,-62.500,-39.062,-238.770,-38.086,0.000
1757889235.614,-71.289,-29.785,-179.199,-46.875,0.000
1757889235.618,-26.855,-29.785,-205.566,-40.527,0.000
1757889235.622,-14.160,-31.250,-245.605,-19.531,0.000
1757889235.626,-50.293,-34.668,-259.277,-18.555,0.000
1757889235.629,-63.965,-34.180,-293.945,-33.203,0.000
1757889235.633,-43.945,-35.645,-278.809,-29.297,0.000
1757889235.637,-10.742,-37.109,-294.922,-12.207,0.000
1757889235.641,-27.344,-33.691,-193.848,-19.043,0.000
1757889235.645,-51.758,-32.227,-169.922,-24.414,0.000
1757889235.649,-43.945,-33.691,-315.918,-29.785,0.000
1757889235.653,-20.020,-32.715,-368.164,-26.855,0.000
1757889235.657,-29.297,-31.250,-187.500,-30.273,0.000
1757889235.661,-67.383,-34.668,-138.672,-38.574,0.000
1757889235.665,-60.059,-39.551,-298.340,-26.855,0.000
1757889235.668,-23.438,-35.156,-260.254,-27.832,0.000
1757889235.672,-20.508,-34.180,-30.273,-33.691,0.000
1757889235.676,-56.641,-46.387,-170.410,-31.738,0.000
1757889235.680,-76.660,-53.711,-449.707,-26.855,0.000
1757889235.684,-41.992,-42.969,-486.328,-31.738,0.000
1757889235.688,-6.348,-29.297,-216.309,-48.828,0.000
1757889235.692,-32.227,-27.832,-177.246,-45.410,0.000
1757889235.696,-66.895,-30.273,-271.484,-46.387,0.000
1757889235.700,-44.922,-29.297,-226.074,-48.828,0.000
1757889235.704,-6.836,-29.297,-146.484,-37.598,0.000
1757889235.708,-25.879,-35.645,-175.293,-35.156,0.000
1757889235.711,-69.824,-35.156,-287.109,-37.598,0.000
1757889235.715,-61.035,-32.715,-186.523,-37.109,0.000
1757889235.719,-11.230,-36.133,-159.180,-33.691,0.000
1757889235.723,-12.695,-43.945,-286.621,-40.527,0.000
1757889235.727,-60.547,-42.969,-389.160,-29.785,0.000
1757889235.731,-72.266,-41.016,-302.246,-31.738,0.000
1757889235.735,-54.199,-48.828,-3.906,-51.270,0.000
1757889235.739,-40.527,-48.340,-90.332,-54.199,0.000
1757889235.743,-61.523,-45.410,-321.289,-53.711,0.000
1757889235.746,-82.520,-41.016,-203.613,-54.199,0.000
1757889235.750,-62.988,-36.621,-137.695,-57.129,0.000
1757889235.754,-28.320,-30.762,-279.785,-49.316,0.000
1757889235.758,-44.434,-32.227,-342.285,-40.039,0.000
1757889235.762,-77.637,-35.645,-204.590,-45.410,0.000
1757889235.766,-55.176,-28.320,-145.508,-55.664,0.000
1757889235.770,-14.648,-24.414,-353.516,-36.621,0.000
1757889235.774,-36.133,-27.832,-464.844,-35.645,0.000
1757889235.778,-75.195,-24.902,-297.363,-53.223,0.000
1757889235.782,-51.270,-23.926,-235.352,-51.758,0.000
1757889235.785,-4.883,-29.297,-325.684,-35.156,0.000
1757889235.789,-20.996,-26.855,-319.336,-24.414,0.000
1757889235.793,-82.031,-26.367,-194.824,-41.504,0.000
1757889235.797,-82.031,-29.785,-278.809,-55.176,0.000
1757889235.801,-31.738,-29.785,-288.574,-49.805,0.000
1757889235.805,-22.949,-33.691,-170.898,-36.621,0.000
1757889235.809,-57.129,-29.785,-130.371,-47.363,0.000
1757889235.813,-78.125,-32.715,-234.863,-50.293,0.000
1757889235.817,-52.734,-46.875,-333.496,-35.645,0.000
1757889235.821,-32.715,-53.711,-267.578,-30.762,0.000
1757889235.825,-68.848,-53.711,-209.473,-39.551,0.000
1757889235.829,-106.934,-52.246,-309.570,-54.688,0.000
1757889235.832,-83.984,-51.758,-396.484,-54.199,0.000
1757889235.836,-47.363,-49.805,-208.008,-53.711,0.000
1757889235.840,-70.801,-51.758,-145.996,-46.387,0.000
1757889235.844,-108.887,-55.664,-327.148,-45.898,0.000
1757889235.848,-97.168,-62.012,-347.168,-47.852,0.000
1757889235.852,-49.805,-64.453,-236.328,-50.293,0.000
1757889235.856,-49.805,-65.918,-321.777,-53.223,0.000
1757889235.860,-103.516,-66.895,-379.883,-57.129,0.000
1757889235.864,-127.930,-67.871,-364.258,-76.172,0.000
1757889235.868,-83.984,-66.406,-304.688,-74.707,0.000
1757889235.872,-52.246,-68.359,-277.832,-65.430,0.000
1757889235.875,-77.637,-71.777,-464.844,-66.406,0.000
1757889235.879,-96.191,-69.336,-483.887,-76.660,0.000
1757889235.883,-73.242,-63.965,-185.059,-65.918,0.000
1757889235.887,-49.805,-71.777,-197.754,-43.945,0.000
1757889235.891,-79.590,-77.637,-285.645,-57.617,0.000
1757889235.895,-112.793,-66.895,-241.211,-81.543,0.000
1757889235.899,-88.867,-58.105,-196.289,-71.289,0.000
1757889235.903,-42.969,-57.129,-217.285,-59.570,0.000
1757889235.907,-48.340,-55.176,-314.941,-57.129,0.000
1757889235.911,-81.543,-55.176,-340.820,-58.594,0.000
1757889235.915,-88.379,-55.664,-316.406,-69.336,0.000
1757889235.918,-47.852,-52.246,-309.082,-57.617,0.000
1757889235.922,-33.691,-55.176,-355.957,-37.109,0.000
1757889235.926,-84.473,-53.711,-269.531,-42.480,0.000
1757889235.930,-93.750,-42.969,-92.773,-43.457,0.000
1757889235.934,-45.410,-39.551,-187.012,-32.227,0.000
1757889235.938,-20.508,-43.457,-281.250,-32.227,0.000
1757889235.942,-54.688,-50.293,-101.562,-47.852,0.000
1757889235.946,-83.008,-55.176,-146.973,-42.480,0.000
1757889235.950,-58.105,-51.270,-281.738,-31.738,0.000
1757889235.954,-23.926,-49.316,-275.391,-35.645,0.000
1757889235.957,-44.922,-52.734,-273.926,-30.762,0.000
1757889235.961,-76.660,-51.758,-320.801,-35.645,0.000
1757889235.965,-61.035,-52.246,-467.285,-20.996,0.000
1757889235.969,-17.090,-49.805,-452.637,-10.254,0.000
1757889235.973,3.906,-34.180,-134.766,-23.438,0.000
1757889235.977,-47.852,-33.203,-67.383,-20.020,0.000
1757889235.981,-69.336,-44.434,-223.145,-27.344,0.000
1757889235.985,-24.414,-42.969,-147.949,-27.832,0.000
1757889235.989,-9.277,-42.480,60.059,-25.879,0.000
1757889235.993,-43.457,-43.457,-55.664,-25.879,0.000
1757889235.997,-64.453,-42.969,-247.070,-28.320,0.000
1757889236.000,-39.551,-43.945,-209.473,-45.410,0.000
1757889236.004,-21.484,-43.457,-226.562,-41.016,0.000
1757889236.008,-41.504,-39.062,-302.246,-39.062,0.000
1757889236.012,-73.242,-41.504,-382.812,-43.945,0.000
1757889236.016,-55.176,-37.109,-259.277,-51.758,0.000
1757889236.020,-13.184,-30.762,-113.281,-52.734,0.000
1757889236.024,-17.090,-31.250,-278.809,-42.480,0.000
1757889236.028,-54.688,-35.156,-336.914,-43.945,0.000
1757889236.032,-63.965,-43.945,-189.453,-45.898,0.000
1757889236.036,-22.461,-49.316,-134.277,-40.527,0.000
1757889236.040,-15.137,-46.387,-275.879,-35.156,0.000
1757889236.043,-52.734,-43.945,-325.195,-28.320,0.000
1757889236.047,-52.246,-41.016,-228.027,-31.738,0.000
1757889236.051,-13.184,-28.809,-254.883,-25.391,0.000
1757889236.055,2.441,-28.320,-430.664,-12.695,0.000
1757889236.059,-26.855,-25.879,-480.957,-19.043,0.000
1757889236.063,-47.852,-14.160,-205.566,-22.949,0.000
1757889236.067,-30.273,-21.973,-179.688,-25.391,0.000
1757889236.071,-1.953,-31.250,-205.566,-20.996,0.000
1757889236.075,-20.996,-41.504,-213.867,-29.297,0.000
1757889236.079,-59.082,-44.922,-237.305,-33.691,0.000
1757889236.082,-50.293,-45.410,-217.773,-30.762,0.000
1757889236.086,-21.484,-53.223,-232.910,-38.086,0.000
1757889236.090,-35.645,-50.781,-199.707,-48.828,0.000
1757889236.094,-71.777,-46.875,-239.258,-57.129,0.000
1757889236.098,-62.988,-50.781,-306.641,-52.246,0.000
1757889236.102,-28.320,-54.199,-396.484,-36.133,0.000
1757889236.106,-26.367,-50.293,-294.434,-41.992,0.000
1757889236.110,-66.406,-46.875,-132.324,-51.758,0.000
1757889236.114,-80.566,-50.293,-278.809,-48.340,0.000
1757889236.118,-35.156,-50.293,-285.156,-51.270,0.000
1757889236.121,-17.090,-47.363,-144.043,-45.898,0.000
1757889236.126,-55.176,-52.246,-151.367,-44.922,0.000
1757889236.129,-80.078,-58.594,-312.988,-61.523,0.000
1757889236.133,-49.316,-58.105,-377.441,-65.918,0.000
1757889236.137,-15.625,-48.828,-210.938,-59.570,0.000
1757889236.141,-44.434,-39.062,-144.043,-62.988,0.000
1757889236.145,-82.520,-40.527,-411.133,-51.758,0.000
1757889236.149,-51.758,-38.086,-537.598,-30.273,0.000
1757889236.153,-12.695,-33.691,-248.047,-20.508,0.000
1757889236.157,-12.207,-30.273,-186.035,-23.438,0.000
1757889236.161,-32.227,-25.879,-250.488,-33.203,0.000
1757889236.164,-36.133,-28.320,-220.703,-26.367,0.000
1757889236.168,-3.418,-32.227,-164.062,-11.230,0.000
1757889236.172,5.371,-36.621,-182.129,-1.953,0.000
1757889236.176,-34.668,-36.133,-288.086,-8.789,0.000
1757889236.180,-50.781,-33.203,-246.094,-18.555,0.000
1757889236.184,-12.207,-35.645,-167.480,-16.602,0.000
1757889236.188,7.324,-41.504,-234.863,-2.441,0.000
1757889236.192,-24.902,-50.293,-314.453,-10.742,0.000
1757889236.196,-51.270,-48.340,-338.867,-29.297,0.000
1757889236.200,-42.480,-44.434,-255.859,-26.855,0.000
1757889236.204,-16.602,-40.527,-245.117,-35.156,0.000
1757889236.207,-32.227,-39.062,-380.371,-28.320,0.000
1757889236.211,-59.082,-32.227,-232.422,-24.414,0.000
1757889236.215,-41.016,-25.391,-65.430,-30.273,0.000
1757889236.219,-1.953,-29.785,-182.617,-29.785,0.000
1757889236.223,1.465,-29.297,-305.664,-41.504,0.000
1757889236.227,-47.363,-26.367,-185.547,-47.852,0.000
1757889236.231,-49.316,-27.344,-182.617,-39.551,0.000
1757889236.235,-43.945,-30.762,-208.496,-41.504,0.000
1757889236.239,-82.520,-36.621,-231.934,-55.176,0.000
1757889236.243,-60.059,-41.504,-424.805,-42.969,0.000
1757889236.247,-21.973,-39.551,-485.352,-31.738,0.000
1757889236.250,-36.621,-28.320,-243.164,-38.574,0.000
1757889236.254,-52.246,-28.320,-249.023,-26.855,0.000
1757889236.258,-43.457,-39.062,-309.570,-22.461,0.000
1757889236.262,-20.508,-39.062,-104.004,-22.949,0.000
1757889236.266,-21.484,-35.645,-25.391,-26.367,0.000
1757889236.270,-58.105,-39.062,-220.215,-38.086,0.000
1757889236.274,-65.918,-39.551,-295.410,-51.270,0.000
1757889236.278,-40.527,-38.086,-166.504,-54.199,0.000
1757889236.282,-36.133,-45.410,-198.730,-54.199,0.000
1757889236.286,-79.102,-54.688,-344.238,-65.918,0.000
1757889236.290,-99.121,-56.641,-401.855,-75.684,0.000
1757889236.293,-61.523,-48.828,-309.082,-76.660,0.000
1757889236.297,-37.109,-37.598,-154.785,-63.965,0.000
1757889236.301,-66.895,-40.527,-262.207,-62.988,0.000
1757889236.305,-82.520,-47.363,-357.422,-58.105,0.000
1757889236.309,-57.617,-47.852,-207.031,-53.711,0.000
1757889236.313,-28.320,-45.410,-168.457,-58.105,0.000
1757889236.317,-52.246,-45.898,-306.152,-50.781,0.000
1757889236.321,-97.168,-44.434,-338.867,-46.875,0.000
1757889236.325,-68.359,-39.062,-274.902,-44.434,0.000
1757889236.329,-15.137,-37.598,-228.516,-41.504,0.000
1757889236.333,-16.602,-37.598,-382.812,-23.438,0.000
1757889236.336,-55.176,-33.691,-453.125,-15.137,0.000
1757889236.340,-52.734,-31.738,-183.105,-23.926,0.000
1757889236.344,-8.789,-41.504,-128.906,-24.414,0.000
1757889236.348,9.766,-45.410,-249.023,-18.066,0.000
1757889236.352,-28.320,-37.109,-283.691,-25.879,0.000
1757889236.356,-41.992,-29.785,-185.059,-28.809,0.000
1757889236.360,-7.812,-39.062,-202.637,-9.766,0.000
1757889236.364,-0.488,-48.340,-262.207,-17.090,0.000
1757889236.368,-39.062,-37.598,-221.191,-44.434,0.000
1757889236.372,-57.617,-22.461,-168.945,-54.199,0.000
1757889236.376,-37.598,-20.020,-242.676,-44.434,0.000
1757889236.380,-10.254,-23.926,-317.383,-34.668,0.000
1757889236.383,-23.926,-20.996,-269.531,-44.922,0.000
1757889236.387,-67.871,-26.367,-211.914,-57.129,0.000
1757889236.391,-65.918,-29.785,-300.781,-49.316,0.000
1757889236.395,-30.762,-20.020,-375.977,-42.969,0.000
1757889236.399,-27.832,-7.812,-265.625,-50.781,0.000
1757889236.403,-51.270,-5.371,-278.320,-47.852,0.000
1757889236.407,-72.266,-16.113,-370.605,-60.547,0.000
1757889236.411,-49.805,-29.785,-275.391,-67.871,0.000
1757889236.415,-35.156,-27.344,-109.375,-53.711,0.000
1757889236.419,-73.730,-26.367,-291.016,-48.828,0.000
1757889236.423,-84.473,-33.203,-363.770,-38.574,0.000
1757889236.426,-50.781,-28.809,-302.246,-41.016,0.000
1757889236.430,-30.762,-20.020,-253.906,-64.453,0.000
1757889236.434,-61.035,-16.602,-160.645,-73.730,0.000
1757889236.438,-80.566,-29.297,-420.410,-58.105,0.000
1757889236.442,-55.664,-37.109,-454.102,-48.340,0.000
1757889236.446,-13.184,-25.391,-42.969,-33.203,0.000
1757889236.450,-25.879,-22.461,-83.496,-30.762,0.000
1757889236.454,-80.566,-32.227,-255.371,-57.617,0.000
1757889236.458,-83.984,-38.574,-242.188,-75.684,0.000
1757889236.462,-42.969,-42.969,-230.957,-69.336,0.000
1757889236.466,-32.227,-45.898,-233.887,-51.758,0.000
1757889236.470,-62.988,-47.852,-303.223,-51.758,0.000
1757889236.473,-78.613,-47.852,-338.379,-45.410,0.000
1757889236.477,-40.527,-41.016,-209.961,-33.691,0.000
1757889236.481,-16.113,-34.180,-237.793,-38.574,0.000
1757889236.485,-55.664,-44.434,-395.508,-39.062,0.000
1757889236.489,-73.730,-45.410,-222.168,-43.945,0.000
1757889236.493,-36.621,-41.016,-102.539,-46.387,0.000
1757889236.497,-3.418,-46.387,-268.066,-39.551,0.000
1757889236.501,-33.691,-41.992,-336.426,-35.645,0.000
1757889236.505,-65.918,-34.668,-197.754,-37.598,0.000
1757889236.509,-45.410,-40.039,-176.270,-44.434,0.000
1757889236.513,-13.672,-51.758,-262.695,-40.039,0.000
1757889236.516,-34.180,-54.688,-315.918,-44.434,0.000
1757889236.520,-82.520,-62.012,-284.180,-48.828,0.000
1757889236.524,-66.406,-65.918,-265.625,-50.781,0.000
1757889236.528,-31.250,-61.523,-401.855,-50.781,0.000
1757889236.532,-33.203,-59.082,-431.152,-41.016,0.000
1757889236.536,-51.270,-53.223,-197.754,-43.945,0.000
1757889236.540,-64.941,-48.340,-198.242,-49.805,0.000
1757889236.544,-34.668,-51.758,-262.207,-54.199,0.000
1757889236.548,-9.277,-57.617,-172.363,-42.969,0.000
1757889236.552,-41.504,-59.570,-109.375,-37.109,0.000
1757889236.556,-67.383,-62.012,-233.887,-53.223,0.000
1757889236.559,-41.992,-58.594,-276.855,-51.270,0.000
1757889236.563,-3.906,-53.223,-167.969,-39.551,0.000
1757889236.567,-28.320,-59.082,-221.680,-38.574,0.000
1757889236.571,-80.566,-61.035,-350.586,-27.832,0.000
1757889236.575,-70.312,-51.758,-395.020,-20.020,0.000
1757889236.579,-18.555,-36.621,-238.281,-22.949,0.000
1757889236.583,-16.113,-32.227,-114.258,-26.367,0.000
1757889236.587,-53.711,-35.156,-273.438,-39.062,0.000
1757889236.591,-51.270,-30.273,-331.543,-38.574,0.000
1757889236.595,-1.953,-30.762,-165.039,-18.066,0.000
1757889236.599,5.859,-40.039,-130.371,-16.602,0.000
1757889236.602,-35.156,-54.688,-264.648,-18.066,0.000
1757889236.606,-44.922,-61.035,-365.723,-25.391,0.000
1757889236.610,-22.949,-51.270,-246.094,-36.621,0.000
1757889236.614,3.418,-42.969,-224.121,-22.461,0.000
1757889236.618,-24.414,-49.316,-423.340,-12.207,0.000
1757889236.622,-71.289,-56.641,-421.875,-20.996,0.000
1757889236.626,-41.992,-49.805,-130.859,-23.438,0.000
1757889236.630,3.418,-47.852,-224.609,-15.137,0.000
1757889236.634,-17.090,-52.734,-282.715,-21.484,0.000
1757889236.638,-47.852,-52.246,-180.176,-22.949,0.000
1757889236.642,-38.574,-50.293,-91.797,-18.555,0.000
1757889236.645,-16.602,-51.270,-175.781,-25.391,0.000
1757889236.649,-22.949,-47.363,-282.227,-27.344,0.000
1757889236.653,-57.617,-48.828,-200.684,-33.691,0.000
1757889236.657,-62.988,-51.758,-181.152,-37.598,0.000
1757889236.661,-30.273,-51.270,-291.504,-34.668,0.000
1757889236.665,-6.348,-52.734,-393.555,-28.320,0.000
1757889236.669,-33.203,-45.410,-241.211,-32.227,0.000
1757889236.673,-78.125,-38.574,-105.957,-47.852,0.000
1757889236.677,-41.992,-36.621,-252.441,-38.574,0.000
1757889236.681,2.441,-33.203,-301.758,-15.625,0.000
1757889236.684,-23.926,-34.668,-243.164,-19.043,0.000
1757889236.688,-53.223,-33.691,-231.934,-34.180,0.000
1757889236.692,-42.480,-29.785,-272.949,-38.086,0.000
1757889236.696,-15.625,-28.320,-298.828,-45.898,0.000
1757889236.700,-9.277,-29.785,-263.184,-36.133,0.000
1757889236.704,-42.969,-35.645,-271.484,-16.602,0.000
1757889236.708,-48.340,-42.480,-403.320,-17.578,0.000
1757889236.712,-9.766,-35.645,-412.598,-21.484,0.000
1757889236.716,-10.742,-27.832,-24.414,-28.320,0.000
1757889236.720,-47.852,-34.180,-65.430,-28.809,0.000
1757889236.723,-60.059,-33.203,-277.344,-19.531,0.000
1757889236.727,-15.625,-29.297,-196.289,-10.742,0.000
1757889236.731,5.859,-27.832,0.977,-8.789,0.000
1757889236.735,-25.879,-21.973,5.859,-12.695,0.000
1757889236.739,-48.828,-30.273,-230.957,-22.949,0.000
1757889236.743,-37.598,-42.969,-263.184,-26.855,0.000
1757889236.747,-17.578,-51.758,-103.516,-34.180,0.000
1757889236.751,-39.551,-58.105,-163.574,-31.738,0.000
1757889236.755,-80.078,-59.082,-333.984,-34.180,0.000
1757889236.759,-57.129,-51.758,-263.184,-40.039,0.000
1757889236.763,-12.695,-48.828,-104.980,-43.457,0.000
1757889236.767,-29.297,-52.734,-237.793,-48.828,0.000
1757889236.770,-70.801,-53.711,-402.832,-37.109,0.000
1757889236.774,-56.641,-53.711,-248.047,-31.738,0.000
1757889236.778,-13.672,-56.641,-168.457,-35.645,0.000
1757889236.782,-22.461,-66.895,-299.316,-32.227,0.000
1757889236.786,-63.965,-62.012,-334.961,-42.969,0.000
1757889236.790,-65.918,-46.875,-208.496,-51.758,0.000
1757889236.794,-24.414,-46.387,-255.371,-38.574,0.000
1757889236.798,2.930,-36.621,-303.711,-25.391,0.000
1757889236.802,-15.137,-28.809,-315.430,-32.227,0.000
1757889236.806,-47.852,-36.621,-299.316,-44.434,0.000
1757889236.810,-40.527,-44.434,-182.129,-34.180,0.000
1757889236.814,-6.836,-57.129,-412.109,-20.996,0.000
1757889236.817,-12.695,-56.641,-445.312,-21.973,0.000
1757889236.821,-49.805,-48.828,-86.914,-34.180,0.000
1757889236.825,-36.621,-52.246,-243.652,-29.785,0.000
1757889236.829,6.836,-51.758,-325.684,-22.461,0.000
1757889236.833,5.371,-49.805,-213.867,-27.832,0.000
1757889236.837,-45.410,-50.781,-197.266,-34.668,0.000
1757889236.841,-62.988,-52.246,-229.980,-41.504,0.000
1757889236.845,-10.254,-46.875,-290.039,-36.621,0.000
1757889236.849,-6.836,-47.852,-313.965,-38.574,0.000
1757889236.853,-54.199,-50.781,-285.645,-53.223,0.000
1757889236.857,-72.266,-55.664,-323.730,-54.688,0.000
1757889236.860,-51.270,-67.383,-375.977,-49.805,0.000
1757889236.864,-29.297,-60.547,-194.336,-50.293,0.000
1757889236.868,-52.734,-46.875,-157.715,-59.082,0.000
1757889236.872,-83.984,-50.293,-323.242,-62.500,0.000
1757889236.876,-75.684,-52.246,-316.406,-60.059,0.000
1757889236.880,-43.457,-47.363,-158.203,-59.570,0.000
1757889236.884,-51.758,-44.922,-191.406,-52.246,0.000
1757889236.888,-90.332,-46.387,-324.707,-58.105,0.000
1757889236.892,-76.172,-47.363,-304.199,-69.336,0.000
1757889236.896,-22.461,-48.828,-268.555,-62.012,0.000
1757889236.900,-17.090,-53.711,-289.062,-66.406,0.000
1757889236.903,-56.152,-57.129,-459.473,-64.453,0.000
1757889236.907,-60.059,-54.688,-520.508,-52.246,0.000
1757889236.911,-5.859,-43.945,-239.746,-42.480,0.000
1757889236.915,7.324,-43.945,-191.895,-34.180,0.000
1757889236.919,-51.270,-55.664,-273.438,-49.316,0.000
1757889236.923,-66.895,-64.941,-261.230,-55.664,0.000
1757889236.927,-41.016,-64.453,-210.449,-53.711,0.000
1757889236.931,-26.367,-55.664,-237.305,-50.293,0.000
1757889236.935,-37.598,-45.410,-266.113,-44.434,0.000
1757889236.939,-56.152,-45.898,-250.977,-54.199,0.000
1757889236.943,-53.223,-44.922,-316.895,-69.336,0.000
1757889236.947,-22.461,-42.480,-314.941,-70.312,0.000
1757889236.950,-15.625,-47.852,-377.441,-57.617,0.000
1757889236.954,-67.383,-45.898,-266.602,-67.871,0.000
1757889236.958,-77.637,-41.016,-125.488,-89.355,0.000
1757889236.962,-40.527,-46.387,-251.465,-84.473,0.000
1757889236.966,-48.828,-53.711,-326.172,-73.242,0.000
1757889236.970,-80.566,-52.246,-204.102,-74.219,0.000
1757889236.974,-76.660,-52.734,-194.824,-67.383,0.000
1757889236.978,-48.828,-54.199,-271.973,-47.363,0.000
1757889236.982,-36.621,-59.570,-336.914,-44.922,0.000
1757889236.986,-68.359,-59.082,-282.227,-68.848,0.000
1757889236.990,-85.938,-47.363,-265.625,-74.707,0.000
1757889236.994,-47.363,-46.387,-416.504,-56.641,0.000
1757889236.997,-25.879,-46.387,-416.504,-44.922,0.000
1757889237.001,-41.016,-35.645,-166.016,-51.270,0.000
1757889237.005,-51.758,-35.645,-209.473,-50.293,0.000
1757889237.009,-27.832,-31.738,-265.137,-32.715,0.000
1757889237.013,8.789,-21.973,-164.551,-24.414,0.000
1757889237.017,1.953,-25.391,-157.227,-29.785,0.000
1757889237.021,-32.227,-30.273,-266.113,-29.297,0.000
1757889237.025,-34.668,-26.855,-293.945,-30.273,0.000
1757889237.029,1.465,-13.184,-143.555,-26.367,0.000
1757889237.033,8.301,-7.324,-155.762,-12.695,0.000
1757889237.037,-39.062,-20.020,-326.172,-22.461,0.000
1757889237.040,-61.035,-21.973,-311.035,-27.832,0.000
1757889237.044,-11.230,-8.301,-206.543,-22.949,0.000
1757889237.048,13.672,-3.418,-127.930,-23.926,0.000
1757889237.052,-15.137,-9.766,-284.668,-24.902,0.000
1757889237.056,-34.180,-20.020,-445.312,-15.625,0.000
1757889237.060,-19.531,-28.809,-239.258,-7.324,0.000
1757889237.064,8.301,-33.203,-94.238,-16.113,0.000
1757889237.068,-13.672,-32.227,-243.164,-25.391,0.000
1757889237.072,-62.500,-35.645,-362.305,-23.926,0.000
1757889237.076,-52.246,-36.133,-266.113,-31.250,0.000
1757889237.079,-4.395,-31.738,-278.320,-27.832,0.000
1757889237.083,0.488,-27.832,-334.473,3.418,0.000
1757889237.087,-40.039,-29.297,-308.105,-2.441,0.000
1757889237.091,-53.711,-34.668,-221.680,-23.926,0.000
1757889237.095,-20.996,-37.598,-132.812,-16.113,0.000
1757889237.099,-8.789,-40.039,-321.289,-6.836,0.000
1757889237.103,-42.969,-37.109,-399.414,-14.160,0.000
1757889237.107,-49.316,-29.785,-121.094,-19.043,0.000
1757889237.111,-22.949,-29.297,-189.941,-13.184,0.000
1757889237.115,-5.371,-26.367,-269.043,-16.602,0.000
1757889237.119,-28.809,-22.949,-187.012,-26.855,0.000
1757889237.123,-57.129,-27.832,-186.035,-30.273,0.000
1757889237.126,-31.250,-37.598,-257.324,-18.066,0.000
1757889237.130,6.836,-41.504,-276.367,4.883,0.000
1757889237.134,-9.277,-39.551,-279.297,-12.695,0.000
1757889237.138,-62.500,-30.273,-225.098,-52.734,0.000
1757889237.142,-60.547,-31.250,-223.633,-52.246,0.000
1757889237.146,-28.809,-40.527,-354.492,-32.227,0.000
1757889237.150,-44.434,-39.551,-196.777,-51.270,0.000
1757889237.154,-66.895,-40.527,-134.277,-56.641,0.000
1757889237.158,-58.594,-44.434,-326.660,-35.156,0.000
1757889237.162,-40.039,-46.387,-332.520,-27.832,0.000
1757889237.166,-30.762,-41.992,-126.465,-26.367,0.000
1757889237.170,-50.293,-42.969,-218.750,-28.320,0.000
1757889237.173,-65.430,-45.410,-340.820,-35.645,0.000
1757889237.177,-33.691,-37.598,-309.570,-31.738,0.000
1757889237.181,-2.441,-30.762,-224.121,-17.578,0.000
1757889237.185,-33.203,-38.574,-164.551,-25.879,0.000
1757889237.189,-78.125,-52.734,-416.504,-27.832,0.000
1757889237.193,-57.129,-51.758,-440.430,-15.625,0.000
1757889237.197,-7.324,-37.598,-63.965,-16.113,0.000
1757889237.201,-0.977,-28.320,-40.039,-20.020,0.000
1757889237.205,-39.551,-27.344,-213.867,-30.273,0.000
1757889237.209,-53.711,-27.832,-189.941,-36.133,0.000
1757889237.213,-11.230,-19.531,-33.691,-23.438,0.000
1757889237.216,10.254,-19.043,-62.988,-19.043,0.000
1757889237.220,-20.020,-35.156,-255.371,-21.973,0.000
1757889237.224,-45.898,-37.109,-356.445,-31.250,0.000
1757889237.228,-19.531,-28.809,-229.980,-41.992,0.000
1757889237.232,-4.395,-35.156,-235.840,-44.434,0.000
1757889237.236,-42.969,-46.387,-397.949,-37.109,0.000
1757889237.240,-60.547,-35.645,-255.371,-39.062,0.000
1757889237.244,-33.203,-34.180,-207.031,-47.363,0.000
1757889237.248,4.883,-42.969,-323.242,-36.621,0.000
1757889237.252,-19.531,-45.898,-302.246,-38.574,0.000
1757889237.256,-72.266,-47.852,-178.711,-48.828,0.000
1757889237.259,-56.641,-41.504,-175.293,-50.781,0.000
1757889237.263,-15.625,-42.480,-274.414,-40.527,0.000
1757889237.267,-22.949,-45.410,-308.105,-26.367,0.000
1757889237.271,-61.523,-45.898,-286.133,-33.691,0.000
1757889237.275,-64.941,-42.480,-224.609,-40.039,0.000
1757889237.279,-29.297,-41.992,-377.441,-31.738,0.000
1757889237.283,-17.578,-43.945,-426.270,-21.973,0.000
1757889237.287,-45.410,-38.574,-147.461,-21.484,0.000
1757889237.291,-59.570,-38.086,-211.426,-23.438,0.000
1757889237.294,-18.066,-34.668,-264.160,-33.691,0.000
1757889237.299,15.625,-33.691,-217.773,-22.461,0.000
1757889237.302,-16.602,-41.504,-227.051,-9.277,0.000
1757889237.306,-50.781,-49.805,-249.512,-19.043,0.000
1757889237.310,-31.738,-42.969,-260.742,-35.156,0.000
1757889237.314,-4.883,-33.203,-108.398,-37.598,0.000
1757889237.318,-26.855,-39.062,-152.832,-37.109,0.000
1757889237.322,-51.758,-32.715,-310.547,-23.438,0.000
1757889237.326,-46.387,-28.809,-358.398,-15.137,0.000
1757889237.330,-19.531,-31.250,-204.102,-15.625,0.000
1757889237.334,-20.996,-22.461,-114.746,-20.020,0.000
1757889237.338,-63.477,-23.926,-270.996,-29.297,0.000
1757889237.341,-67.383,-30.273,-294.922,-35.645,0.000
1757889237.345,-29.297,-26.855,-134.277,-44.434,0.000
1757889237.349,-23.438,-34.668,-126.465,-39.062,0.000
1757889237.353,-62.012,-42.969,-280.762,-50.293,0.000
1757889237.357,-82.031,-37.598,-364.746,-60.059,0.000
1757889237.361,-63.965,-38.574,-278.320,-58.594,0.000
1757889237.365,-41.992,-44.434,-259.766,-56.641,0.000
1757889237.369,-52.734,-47.363,-432.617,-49.316,0.000
1757889237.373,-79.102,-41.992,-449.219,-51.270,0.000
1757889237.377,-72.266,-26.855,-139.160,-53.223,0.000
1757889237.381,-34.668,-25.391,-58.594,-45.410,0.000
1757889237.384,-33.691,-30.762,-156.250,-42.969,0.000
1757889237.388,-62.500,-26.855,-223.633,-48.828,0.000
1757889237.392,-51.758,-23.926,-193.848,-45.410,0.000
1757889237.396,-10.254,-23.438,-202.148,-36.133,0.000
1757889237.400,-3.418,-22.949,-255.859,-28.809,0.000
1757889237.404,-43.457,-28.320,-207.520,-42.969,0.000
1757889237.408,-55.176,-33.691,-230.469,-52.246,0.000
1757889237.412,-19.531,-37.598,-297.852,-47.852,0.000
1757889237.416,-11.719,-39.062,-395.996,-34.668,0.000
1757889237.420,-56.152,-32.715,-331.055,-31.738,0.000
1757889237.424,-80.078,-34.668,-173.828,-43.945,0.000
1757889237.427,-54.199,-44.434,-268.066,-46.875,0.000
1757889237.431,-32.227,-41.992,-275.879,-41.016,0.000
1757889237.435,-46.387,-36.133,-117.676,-47.363,0.000
1757889237.439,-81.055,-34.668,-112.793,-59.570,0.000
1757889237.443,-69.336,-35.645,-273.926,-58.594,0.000
1757889237.447,-27.832,-38.086,-325.684,-44.434,0.000
1757889237.451,-43.945,-40.039,-279.297,-30.762,0.000
1757889237.455,-84.961,-47.852,-274.902,-44.922,0.000
1757889237.459,-82.031,-40.527,-408.691,-59.082,0.000
1757889237.463,-47.363,-10.254,-418.945,-47.363,0.000
1757889237.466,-30.273,11.719,-203.125,-36.621,0.000
1757889237.470,-53.711,13.672,-291.504,-31.250,0.000
1757889237.474,-60.059,15.625,-314.941,-34.668,0.000
1757889237.478,-18.555,13.184,-187.012,-39.062,0.000
1757889237.482,-6.836,-1.465,-77.148,-42.969,0.000
1757889237.486,-46.875,-5.859,-105.469,-39.062,0.000
1757889237.490,-79.590,4.395,-225.098,-49.316,0.000
1757889237.494,-47.852,5.859,-215.820,-52.734,0.000
1757889237.498,0.000,0.488,-142.090,-34.180,0.000
1757889237.502,-19.043,-0.488,-212.402,-27.344,0.000
1757889237.506,-58.105,-3.906,-351.074,-31.738,0.000
1757889237.510,-43.457,-1.953,-258.301,-19.043,0.000
1757889237.513,16.113,17.090,-14.648,-2.441,0.000
1757889237.517,9.766,41.992,-77.637,-12.207,0.000
1757889237.521,-47.852,58.594,-369.629,-25.879,0.000
1757889237.525,-59.082,76.660,-299.316,-29.297,0.000
1757889237.529,-15.625,86.914,-139.648,-29.297,0.000
1757889237.533,-3.906,77.148,-250.488,-20.020,0.000
1757889237.537,-60.059,63.477,-325.684,-25.879,0.000
1757889237.541,-77.637,57.617,-166.504,-43.457,0.000
1757889237.545,-35.156,50.293,-207.520,-41.992,0.000
1757889237.549,-12.695,45.898,-312.012,-39.062,0.000
1757889237.553,-38.574,47.852,-319.336,-42.969,0.000
1757889237.556,-63.965,50.293,-264.648,-45.410,0.000
1757889237.560,-47.363,41.504,-171.387,-44.434,0.000
1757889237.564,-19.531,23.926,-371.582,-26.367,0.000
1757889237.568,-34.180,19.043,-421.875,-31.250,0.000
1757889237.572,-73.730,26.855,-128.418,-50.293,0.000
1757889237.576,-57.129,17.578,-184.082,-39.062,0.000
1757889237.580,-16.602,5.371,-297.852,-28.320,0.000
1757889237.584,-26.855,9.277,-202.637,-37.598,0.000
1757889237.588,-63.477,7.812,-146.973,-40.039,0.000
1757889237.592,-75.684,-1.953,-237.793,-41.504,0.000
1757889237.596,-37.109,-5.859,-285.645,-39.062,0.000
1757889237.600,-10.254,-7.324,-309.082,-33.691,0.000
1757889237.603,-41.504,-9.277,-242.188,-36.133,0.000
1757889237.607,-57.129,-16.602,-244.141,-47.363,0.000
1757889237.611,-28.320,-23.438,-356.934,-37.598,0.000
1757889237.615,-6.836,-16.602,-186.523,-27.344,0.000
1757889237.619,-30.762,-9.766,-75.684,-39.551,0.000
1757889237.623,-72.754,-13.672,-236.328,-54.688,0.000
1757889237.627,-57.129,-18.066,-320.801,-49.805,0.000
1757889237.631,0.488,-14.160,-143.066,-35.645,0.000
1757889237.635,-9.277,-20.508,-182.617,-43.945,0.000
1757889237.639,-62.500,-35.156,-362.793,-52.734,0.000
1757889237.643,-58.105,-40.039,-313.965,-44.922,0.000
1757889237.646,-18.066,-46.387,-256.836,-31.738,0.000
1757889237.650,-18.066,-40.039,-273.926,-37.598,0.000
1757889237.654,-58.594,-40.527,-433.105,-40.039,0.000
1757889237.658,-82.520,-48.828,-454.102,-41.992,0.000
1757889237.662,-49.805,-44.922,-81.055,-41.504,0.000
1757889237.666,-11.230,-47.852,-16.602,-31.250,0.000
1757889237.670,-42.969,-54.688,-226.562,-37.598,0.000
1757889237.674,-68.848,-48.828,-246.094,-41.992,0.000
1757889237.678,-28.809,-40.527,-101.074,-32.227,0.000
1757889237.682,-2.441,-48.828,-43.945,-20.996,0.000
1757889237.686,-25.391,-50.781,-190.918,-23.438,0.000
1757889237.689,-52.734,-46.875,-250.977,-36.621,0.000
1757889237.693,-38.574,-53.223,-273.926,-28.320,0.000
1757889237.697,0.000,-59.570,-310.547,-14.160,0.000
1757889237.701,-13.184,-63.965,-343.750,-14.160,0.000
1757889237.705,-54.199,-65.918,-249.512,-27.344,0.000
1757889237.709,-47.852,-68.359,-142.578,-32.227,0.000
1757889237.713,-8.789,-71.777,-233.398,-18.066,0.000
1757889237.717,-11.719,-65.430,-266.113,-20.508,0.000
1757889237.721,-43.945,-57.129,-168.945,-29.297,0.000
1757889237.725,-60.547,-58.105,-180.664,-30.762,0.000
1757889237.729,-35.645,-65.918,-296.875,-26.855,0.000
1757889237.732,-5.371,-62.012,-346.191,-13.184,0.000
1757889237.736,-39.551,-58.105,-256.348,-14.160,0.000
1757889237.740,-69.824,-66.895,-243.164,-25.391,0.000
1757889237.744,-34.668,-65.430,-388.672,-17.578,0.000
1757889237.748,-5.859,-62.012,-447.754,-10.742,0.000
1757889237.752,-29.297,-57.129,-120.605,-37.109,0.000
1757889237.756,-62.988,-50.293,23.438,-51.270,0.000
1757889237.760,-47.852,-51.758,-139.648,-41.992,0.000
1757889237.764,5.371,-52.246,-160.645,-30.762,0.000
1757889237.768,5.371,-47.363,2.441,-17.578,0.000
1757889237.772,-33.203,-45.410,-7.324,-23.438,0.000
1757889237.775,-26.367,-44.922,-200.195,-21.973,0.000
1757889237.779,12.207,-42.969,-141.602,-12.207,0.000
1757889237.783,22.949,-49.316,6.836,-4.395,0.000
1757889237.787,-9.277,-69.824,-187.012,2.441,0.000
1757889237.791,-24.902,-82.031,-401.855,2.441,0.000
1757889237.795,-10.742,-77.637,-255.859,-9.277,0.000
1757889237.799,-1.953,-73.730,41.016,-12.207,0.000
1757889237.803,-34.180,-65.430,-104.492,-24.902,0.000
1757889237.807,-65.918,-55.176,-290.039,-40.039,0.000
1757889237.811,-28.320,-51.270,-107.422,-29.297,0.000
1757889237.815,8.301,-48.340,74.707,-11.719,0.000
1757889237.818,-3.906,-49.805,-117.676,3.418,0.000
1757889237.822,-40.039,-45.898,-328.125,-9.766,0.000
1757889237.826,-45.410,-42.480,-255.859,-19.043,0.000
1757889237.830,6.836,-44.922,-189.941,-16.602,0.000
1757889237.834,8.789,-52.734,-369.141,-13.672,0.000
1757889237.838,-46.875,-48.828,-442.383,-9.277,0.000
1757889237.842,-50.781,-39.551,-180.664,-16.602,0.000
1757889237.846,-8.789,-52.734,-128.906,-11.719,0.000
1757889237.850,12.695,-60.547,-200.684,1.953,0.000
1757889237.853,-24.902,-51.758,-195.801,-14.160,0.000
1757889237.857,-62.012,-47.852,-150.391,-47.363,0.000
1757889237.862,-36.621,-51.270,-269.531,-44.434,0.000
1757889237.865,-3.418,-51.270,-275.879,-29.297,0.000
1757889237.869,-20.996,-49.805,-152.344,-35.645,0.000
1757889237.873,-47.363,-41.016,-125.977,-41.992,0.000
1757889237.877,-25.879,-41.016,-225.098,-27.344,0.000
1757889237.881,5.371,-46.875,-305.664,-16.113,0.000
1757889237.885,-10.254,-54.199,-272.461,-20.508,0.000
1757889237.889,-47.363,-58.594,-163.086,-33.203,0.000
1757889237.893,-47.852,-50.293,-224.609,-19.531,0.000
1757889237.897,0.977,-38.574,-346.680,-7.812,0.000
1757889237.900,2.441,-38.574,-168.457,-12.695,0.000
1757889237.904,-45.898,-44.434,-113.281,-30.762,0.000
1757889237.908,-50.781,-41.504,-304.199,-42.969,0.000
1757889237.912,-24.902,-44.434,-323.242,-43.457,0.000
1757889237.916,-3.906,-46.875,-217.773,-37.109,0.000
1757889237.920,-15.137,-50.293,-293.945,-23.926,0.000
1757889237.924,-49.316,-50.293,-338.867,-30.762,0.000
1757889237.928,-35.645,-41.992,-336.914,-32.715,0.000
1757889237.932,1.953,-37.109,-237.793,-28.809,0.000
1757889237.936,-17.578,-30.273,-83.496,-32.715,0.000
1757889237.940,-55.176,-39.551,-370.117,-29.785,0.000
1757889237.943,-38.086,-40.527,-442.871,-17.090,0.000
1757889237.947,4.883,-26.855,-26.855,-28.320,0.000
1757889237.951,-10.254,-23.926,3.418,-39.551,0.000
1757889237.955,-54.688,-24.902,-178.711,-36.621,0.000
1757889237.959,-45.898,-29.297,-209.473,-30.762,0.000
1757889237.963,6.348,-26.855,-109.375,-16.113,0.000
1757889237.967,14.648,-25.879,-138.672,-14.160,0.000
1757889237.971,-22.949,-29.297,-299.805,-11.719,0.000
1757889237.975,-38.086,-32.715,-344.727,-3.418,0.000
1757889237.979,-2.930,-35.645,-237.793,-1.953,0.000
1757889237.983,9.277,-32.715,-231.445,-10.742,0.000
1757889237.987,-25.879,-28.320,-383.789,0.488,0.000
1757889237.990,-46.387,-20.996,-273.926,-5.859,0.000
1757889237.994,-8.789,-17.090,-122.070,-19.531,0.000
1757889237.998,34.180,-25.879,-233.887,-3.906,0.000
1757889238.002,7.324,-30.762,-307.129,8.789,0.000
1757889238.006,-36.133,-33.203,-196.777,5.859,0.000
1757889238.010,-20.508,-45.898,-213.867,-3.418,0.000
1757889238.014,14.160,-43.945,-305.176,18.555,0.000
1757889238.018,0.488,-29.785,-316.406,11.230,0.000
1757889238.022,-38.086,-38.086,-279.297,-14.160,0.000
1757889238.026,-43.945,-42.480,-275.879,-17.090,0.000
1757889238.030,-10.254,-38.086,-421.387,-16.113,0.000
1757889238.033,4.395,-37.109,-438.965,-4.395,0.000
1757889238.037,-24.414,-31.250,-179.199,-2.441,0.000
1757889238.041,-32.227,-34.180,-220.703,-0.977,0.000
1757889238.045,-15.625,-32.227,-277.832,3.418,0.000
1757889238.049,2.441,-28.809,-167.969,-5.371,0.000
1757889238.053,-9.766,-31.250,-39.551,-16.113,0.000
1757889238.057,-37.598,-35.156,-141.602,-15.625,0.000
1757889238.061,-20.020,-28.320,-296.875,-13.184,0.000
1757889238.065,4.883,-20.996,-196.289,-21.973,0.000
1757889238.069,-2.930,-26.855,-209.961,-20.996,0.000
1757889238.073,-24.902,-29.297,-317.383,-12.207,0.000
1757889238.076,-20.020,-28.320,-389.648,-5.859,0.000
1757889238.080,0.000,-27.832,-258.301,-9.277,0.000
1757889238.084,-5.859,-35.156,-205.566,-4.395,0.000
1757889238.088,-46.875,-36.133,-354.004,-4.883,0.000
1757889238.092,-60.059,-24.414,-319.824,-21.973,0.000
1757889238.096,-15.625,-15.625,-125.488,-20.020,0.000
1757889238.100,1.953,-18.555,-95.703,-17.090,0.000
1757889238.104,-34.180,-23.926,-298.828,-24.902,0.000
1757889238.108,-47.363,-22.461,-389.160,-24.414,0.000
1757889238.112,-21.973,-23.438,-181.152,-10.254,0.000
1757889238.116,10.742,-24.902,-182.129,5.859,0.000
1757889238.119,-11.719,-33.691,-424.805,-2.441,0.000
1757889238.123,-57.129,-27.832,-442.871,-18.555,0.000
1757889238.127,-52.246,-16.113,-180.176,-32.227,0.000
1757889238.131,-21.484,-19.043,-64.453,-37.598,0.000
1757889238.135,-14.648,-21.484,-138.672,-33.203,0.000
1757889238.139,-39.062,-29.297,-274.902,-19.531,0.000
1757889238.143,-42.969,-32.715,-246.094,-14.648,0.000
1757889238.147,-17.090,-35.156,-164.551,-30.762,0.000
1757889238.151,-10.742,-38.086,-224.121,-27.344,0.000
1757889238.155,-42.969,-32.227,-223.145,-27.832,0.000
1757889238.159,-59.082,-28.809,-207.031,-28.809,0.000
1757889238.162,-26.855,-33.203,-272.949,-19.043,0.000
1757889238.166,-1.465,-38.086,-384.277,-20.020,0.000
1757889238.170,-16.113,-30.762,-278.809,-23.438,0.000
1757889238.174,-35.645,-22.461,-128.906,-16.113,0.000
1757889238.178,0.977,-25.391,-231.445,2.441,0.000
1757889238.182,32.715,-31.738,-264.648,7.812,0.000
1757889238.186,-13.184,-39.062,-166.016,-7.324,0.000
1757889238.190,-44.922,-39.062,-160.645,-4.883,0.000
1757889238.194,-30.762,-42.480,-307.129,1.953,0.000
1757889238.198,1.953,-43.945,-326.660,-0.488,0.000
1757889238.202,-3.418,-40.527,-269.043,-12.207,0.000
1757889238.205,-44.922,-41.504,-267.090,-41.016,0.000
1757889238.209,-36.133,-40.527,-428.223,-29.297,0.000
1757889238.213,7.812,-34.668,-449.707,-8.301,0.000
1757889238.217,22.461,-31.250,-119.629,-2.930,0.000
1757889238.221,-28.320,-47.852,-165.039,-20.996,0.000
1757889238.225,-56.152,-60.059,-274.414,-31.738,0.000
1757889238.229,-31.250,-44.922,-208.984,-27.832,0.000
1757889238.233,-10.742,-30.273,-138.672,-36.621,0.000
1757889238.237,-35.645,-40.527,-195.312,-32.715,0.000
1757889238.241,-68.359,-54.199,-267.578,-26.367,0.000
1757889238.245,-48.340,-58.594,-183.105,-29.297,0.000
1757889238.248,1.465,-55.664,-163.086,-26.367,0.000
1757889238.252,-22.461,-44.434,-273.438,-27.832,0.000
1757889238.256,-69.824,-49.805,-352.051,-47.852,0.000
1757889238.260,-56.152,-47.852,-286.621,-47.363,0.000
1757889238.264,-20.996,-38.086,-143.066,-39.062,0.000
1757889238.268,-22.461,-41.504,-229.004,-46.387,0.000
1757889238.272,-53.223,-41.992,-382.812,-38.574,0.000
1757889238.276,-48.828,-34.668,-214.355,-18.066,0.000
1757889238.280,-12.695,-43.945,-112.793,-10.254,0.000
1757889238.284,-6.348,-54.688,-257.812,-14.648,0.000
1757889238.288,-45.898,-40.039,-348.633,-21.484,0.000
1757889238.292,-66.406,-22.949,-238.281,-27.344,0.000
1757889238.295,-27.832,-19.531,-262.207,-18.555,0.000
1757889238.299,6.836,-25.391,-324.707,-14.160,0.000
1757889238.303,-22.461,-25.879,-341.309,-30.762,0.000
1757889238.307,-53.711,-18.555,-299.316,-38.086,0.000
1757889238.311,-39.551,-15.137,-261.230,-37.109,0.000
1757889238.315,-12.207,-23.926,-427.246,-28.809,0.000
1757889238.319,-17.090,-31.250,-416.016,-22.949,0.000
1757889238.323,-60.547,-30.762,-163.086,-33.691,0.000
1757889238.327,-59.570,-35.156,-204.102,-35.156,0.000
1757889238.331,-21.973,-37.598,-237.793,-23.926,0.000
1757889238.335,-29.785,-43.457,-151.367,-42.969,0.000
1757889238.338,-70.801,-41.992,-155.273,-67.871,0.000
1757889238.342,-74.219,-34.668,-263.184,-52.734,0.000
1757889238.346,-37.109,-35.645,-299.316,-40.527,0.000
1757889238.350,-9.766,-30.762,-313.965,-25.391,0.000
1757889238.354,-36.133,-27.344,-236.816,-24.902,0.000
1757889238.358,-65.918,-30.273,-248.047,-42.969,0.000
1757889238.362,-41.992,-29.785,-393.066,-30.762,0.000
1757889238.366,-18.555,-34.668,-263.672,-32.227,0.000
1757889238.370,-38.086,-47.363,-119.141,-37.109,0.000
1757889238.373,-53.711,-51.758,-244.629,-34.668,0.000
1757889238.378,-33.203,-47.363,-353.027,-39.551,0.000
1757889238.381,-5.859,-48.340,-191.406,-37.109,0.000
1757889238.385,-20.996,-48.828,-131.836,-46.875,0.000
1757889238.389,-59.570,-51.270,-312.988,-51.270,0.000
1757889238.393,-55.664,-51.758,-361.816,-43.945,0.000
1757889238.397,-20.020,-50.781,-294.434,-28.320,0.000
1757889238.401,-14.648,-54.688,-216.797,-25.391,0.000
1757889238.405,-53.223,-62.500,-354.492,-30.762,0.000
1757889238.409,-72.754,-58.594,-454.102,-34.180,0.000
1757889238.413,-46.875,-41.016,-85.938,-54.688,0.000
1757889238.417,-20.996,-42.480,16.113,-53.223,0.000
1757889238.420,-35.645,-53.711,-186.035,-41.992,0.000
1757889238.424,-52.734,-55.176,-224.609,-31.738,0.000
1757889238.428,-36.133,-56.152,-118.652,-29.297,0.000
1757889238.432,-26.367,-64.941,-99.609,-40.039,0.000
1757889238.436,-53.711,-71.777,-188.477,-41.016,0.000
1757889238.440,-88.867,-62.500,-252.930,-54.199,0.000
1757889238.444,-78.125,-60.547,-293.457,-59.082,0.000
1757889238.448,-41.016,-69.824,-298.340,-52.734,0.000
1757889238.452,-41.504,-64.941,-351.074,-52.734,0.000
1757889238.456,-84.473,-54.688,-274.902,-69.336,0.000
1757889238.460,-80.566,-43.945,-159.668,-75.195,0.000
1757889238.463,-24.414,-43.945,-248.535,-46.875,0.000
1757889238.467,-10.254,-47.363,-294.434,-35.645,0.000
1757889238.471,-47.852,-43.945,-142.090,-51.758,0.000
1757889238.475,-76.172,-42.480,-216.797,-54.688,0.000
1757889238.479,-36.133,-39.551,-358.398,-36.621,0.000
1757889238.483,17.090,-29.785,-340.820,-5.859,0.000
1757889238.487,-14.648,-30.273,-261.719,-12.695,0.000
1757889238.491,-60.547,-45.898,-269.531,-35.645,0.000
1757889238.495,-37.109,-54.199,-408.691,-25.879,0.000
1757889238.499,-6.836,-37.598,-429.688,-26.855,0.000
1757889238.503,-24.902,-21.484,-165.527,-39.551,0.000
1757889238.506,-52.246,-30.273,-149.902,-26.855,0.000
1757889238.510,-40.039,-40.039,-288.574,-18.555,0.000
1757889238.514,-5.859,-38.574,-244.141,-22.461,0.000
1757889238.518,-21.484,-37.598,-49.805,-24.902,0.000
1757889238.522,-63.477,-34.668,-59.570,-31.250,0.000
1757889238.526,-64.941,-35.645,-240.723,-36.133,0.000
1757889238.530,-31.250,-39.062,-258.301,-26.855,0.000
1757889238.534,-12.207,-37.109,-235.352,-24.902,0.000
1757889238.538,-48.828,-38.574,-272.949,-40.527,0.000
1757889238.542,-81.055,-39.551,-404.785,-44.434,0.000
1757889238.546,-52.734,-31.738,-338.867,-41.504,0.000
1757889238.549,-18.066,-24.414,-106.445,-48.828,0.000
1757889238.553,-43.457,-27.344,-200.684,-51.270,0.000
1757889238.557,-64.453,-28.809,-295.898,-34.668,0.000
1757889238.561,-33.203,-30.273,-171.875,-30.273,0.000
1757889238.565,-1.465,-34.668,-154.785,-27.832,0.000
1757889238.569,-10.742,-38.574,-293.457,-20.508,0.000
1757889238.573,-48.828,-34.668,-348.633,-34.180,0.000
1757889238.577,-55.176,-31.738,-283.203,-42.969,0.000
1757889238.581,-22.461,-31.738,-208.008,-42.480,0.000
1757889238.585,-20.996,-39.062,-364.746,-30.762,0.000
1757889238.589,-55.176,-43.457,-478.027,-30.762,0.000
1757889238.592,-68.848,-39.551,-223.633,-48.828,0.000
1757889238.596,-29.785,-38.574,-103.516,-48.340,0.000
1757889238.600,-11.719,-44.434,-354.492,-37.598,0.000
1757889238.604,-52.246,-43.457,-455.566,-33.203,0.000
1757889238.608,-64.453,-36.133,-110.840,-41.992,0.000
1757889238.612,-26.367,-40.527,-53.223,-37.598,0.000
1757889238.616,6.836,-40.527,-172.363,-18.555,0.000
1757889238.620,-27.832,-45.410,-191.406,-21.484,0.000
1757889238.624,-67.383,-50.293,-181.152,-40.527,0.000
1757889238.628,-63.965,-54.688,-231.934,-47.363,0.000
1757889238.632,-47.363,-59.082,-302.734,-47.363,0.000
1757889238.635,-55.176,-58.594,-253.418,-47.852,0.000
1757889238.639,-83.008,-53.711,-192.871,-51.270,0.000
1757889238.643,-78.125,-52.734,-296.387,-45.898,0.000
1757889238.647,-34.180,-57.129,-372.559,-36.133,0.000
1757889238.651,-3.906,-46.387,-170.898,-35.156,0.000
1757889238.655,-31.738,-45.898,-69.824,-43.457,0.000
1757889238.659,-66.406,-61.523,-289.551,-49.805,0.000
1757889238.663,-47.363,-62.012,-327.148,-45.898,0.000
1757889238.667,-21.973,-51.758,-126.953,-40.527,0.000
1757889238.671,-49.805,-51.758,-214.355,-44.434,0.000
1757889238.675,-76.172,-52.734,-355.469,-47.852,0.000
1757889238.679,-43.457,-50.781,-354.004,-31.250,0.000
1757889238.682,-4.883,-50.781,-246.094,-18.066,0.000
1757889238.686,-28.320,-49.805,-128.906,-24.414,0.000
1757889238.690,-66.895,-66.895,-380.371,-22.461,0.000
1757889238.694,-52.734,-72.754,-464.844,-14.160,0.000
1757889238.698,-19.043,-49.805,-188.965,-23.926,0.000
1757889238.702,-30.273,-44.922,-264.648,-40.039,0.000
1757889238.706,-72.266,-49.316,-306.152,-47.363,0.000
1757889238.710,-76.660,-43.945,-202.637,-46.387,0.000
1757889238.714,-33.203,-41.504,-159.668,-33.691,0.000
1757889238.718,-13.672,-46.875,-222.656,-26.367,0.000
1757889238.722,-47.363,-47.363,-300.781,-24.902,0.000
1757889238.725,-79.590,-57.617,-306.152,-25.879,0.000
1757889238.729,-58.594,-65.918,-246.094,-31.250,0.000
1757889238.733,-34.668,-64.453,-241.211,-32.715,0.000
1757889238.737,-58.594,-62.012,-335.938,-39.062,0.000
1757889238.741,-89.844,-54.688,-223.633,-50.293,0.000
1757889238.745,-67.871,-45.898,-108.398,-42.969,0.000
1757889238.749,-25.391,-45.898,-228.516,-41.504,0.000
1757889238.753,-39.062,-49.805,-419.434,-55.664,0.000
1757889238.757,-64.941,-43.457,-293.945,-54.199,0.000
1757889238.761,-47.852,-39.551,-188.965,-41.504,0.000
1757889238.765,-16.602,-45.898,-308.105,-34.668,0.000
1757889238.768,-36.621,-55.176,-333.984,-44.922,0.000
1757889238.772,-76.172,-52.246,-288.086,-57.129,0.000
1757889238.776,-74.707,-38.574,-268.066,-57.617,0.000
1757889238.780,-48.340,-41.992,-405.273,-50.781,0.000
1757889238.784,-31.738,-49.805,-405.762,-47.363,0.000
1757889238.788,-45.898,-40.527,-42.969,-41.992,0.000
1757889238.792,-55.664,-39.062,-84.473,-37.598,0.000
1757889238.796,-32.227,-41.992,-266.113,-25.391,0.000
1757889238.800,-18.066,-48.340,-104.492,-23.926,0.000
1757889238.804,-46.875,-59.570,53.223,-32.715,0.000
1757889238.808,-80.078,-51.270,-156.250,-33.691,0.000
1757889238.811,-67.871,-32.227,-286.621,-30.762,0.000
1757889238.815,-28.809,-33.691,-98.633,-32.715,0.000
1757889238.819,-29.297,-43.945,-168.457,-27.344,0.000
1757889238.823,-59.570,-38.574,-311.523,-14.648,0.000
1757889238.827,-62.988,-37.598,-399.902,-19.043,0.000
1757889238.831,-26.855,-34.668,-259.766,-30.273,0.000
1757889238.835,-17.090,-28.809,3.906,-30.762,0.000
1757889238.839,-57.129,-36.621,-153.320,-34.668,0.000
1757889238.843,-67.383,-34.180,-305.664,-47.852,0.000
1757889238.847,-24.902,-25.879,-146.973,-40.527,0.000
1757889238.851,4.883,-20.996,38.086,-21.484,0.000
1757889238.854,-22.461,-26.367,-155.273,-9.766,0.000
1757889238.858,-55.664,-38.086,-413.574,-23.926,0.000
1757889238.862,-40.039,-43.457,-278.809,-39.551,0.000
